* Measurement data measured by REW V5.31.3
* Source: Headset (2- CX31993 HIFI AUDIO), MICROPHONE (Master Volume), R, volume: 0.250
* Format: 256k Log Swept Sine, 1 sweep at -12.0 dBFS with no timing reference
* Dated: 12 5, 24 1:26:50 PM
* REW Settings:
*  C-weighting compensation: Off
*  Target level: 75.0 dB
* Note: ; 
* Measurement: Aoshida E20 R
* Smoothing: 1/12 octave
* Frequency Step: 96 ppo
* Start Frequency: 0.36621094 Hz
*
* Freq(Hz) SPL(dB) Phase(degrees)
0.366211 38.294 -12.8551
0.368865 38.302 -12.7912
0.371538 38.314 -12.6966
0.374230 38.328 -12.5795
0.376942 38.345 -12.4472
0.379673 38.362 -12.3048
0.382424 38.380 -12.1558
0.385196 38.399 -12.0023
0.387987 38.418 -11.8455
0.390798 38.437 -11.6859
0.393630 38.457 -11.5240
0.396483 38.476 -11.3598
0.399356 38.496 -11.1933
0.402250 38.516 -11.0245
0.405165 38.536 -10.8533
0.408101 38.556 -10.6797
0.411058 38.577 -10.5035
0.414037 38.597 -10.3247
0.417037 38.618 -10.1431
0.420059 38.639 -9.9587
0.423103 38.660 -9.7713
0.426169 38.681 -9.5809
0.429257 38.702 -9.3873
0.432368 38.723 -9.1905
0.435501 38.745 -8.9903
0.438656 38.767 -8.7865
0.441835 38.789 -8.5792
0.445037 38.811 -8.3682
0.448262 38.833 -8.1532
0.451510 38.855 -7.9344
0.454782 38.878 -7.7114
0.458077 38.900 -7.4843
0.461397 38.923 -7.2528
0.464740 38.946 -7.0169
0.468108 38.970 -6.7764
0.471500 38.993 -6.5312
0.474917 39.016 -6.2811
0.478358 39.040 -6.0262
0.481825 39.064 -5.7662
0.485316 39.088 -5.5010
0.488833 39.112 -5.2305
0.492375 39.137 -4.9547
0.495943 39.161 -4.6732
0.499537 39.186 -4.3862
0.503157 39.211 -4.0934
0.506803 39.236 -3.7948
0.510475 39.261 -3.4902
0.514175 39.287 -3.1795
0.517900 39.312 -2.8628
0.521653 39.338 -2.5398
0.525434 39.364 -2.2106
0.529241 39.390 -1.8749
0.533076 39.417 -1.5329
0.536939 39.443 -1.1845
0.540830 39.470 -0.8295
0.544749 39.497 -0.4680
0.548696 39.524 -0.0999
0.552673 39.552 0.2747
0.556677 39.579 0.6558
0.560711 39.607 1.0434
0.564774 39.635 1.4375
0.568867 39.663 1.8381
0.572989 39.692 2.2449
0.577141 39.720 2.6581
0.581324 39.749 3.0773
0.585536 39.778 3.5026
0.589779 39.807 3.9338
0.594053 39.837 4.3707
0.598358 39.866 4.8130
0.602694 39.896 5.2607
0.607061 39.926 5.7135
0.611460 39.956 6.1711
0.615891 39.987 6.6332
0.620354 40.018 7.0996
0.624849 40.049 7.5699
0.629377 40.080 8.0439
0.633938 40.111 8.5210
0.638532 40.143 9.0010
0.643159 40.175 9.4835
0.647819 40.207 9.9681
0.652514 40.239 10.4542
0.657242 40.272 10.9415
0.662005 40.304 11.4295
0.666802 40.337 11.9177
0.671634 40.371 12.4057
0.676501 40.404 12.8929
0.681403 40.438 13.3789
0.686341 40.472 13.8631
0.691314 40.507 14.3450
0.696324 40.542 14.8242
0.701370 40.578 15.3003
0.706452 40.615 15.7727
0.711571 40.653 16.2414
0.716728 40.695 16.7060
0.721921 40.741 17.1668
0.727153 40.793 17.6241
0.732422 40.852 18.0788
0.737729 40.921 18.5316
0.743075 40.999 18.9835
0.748460 41.084 19.4351
0.753883 41.175 19.8869
0.759346 41.272 20.3386
0.764849 41.373 20.7901
0.770391 41.479 21.2409
0.775974 41.588 21.6905
0.781597 41.701 22.1383
0.787261 41.818 22.5838
0.792966 41.938 23.0262
0.798712 42.062 23.4651
0.804500 42.189 23.8998
0.810329 42.319 24.3297
0.816201 42.453 24.7542
0.822116 42.590 25.1728
0.828073 42.730 25.5848
0.834074 42.874 25.9899
0.840118 43.020 26.3873
0.846206 43.170 26.7767
0.852338 43.322 27.1576
0.858514 43.478 27.5294
0.864735 43.636 27.8917
0.871001 43.797 28.2441
0.877313 43.961 28.5862
0.883670 44.127 28.9175
0.890074 44.296 29.2378
0.896524 44.467 29.5466
0.903020 44.641 29.8436
0.909564 44.817 30.1286
0.916155 44.995 30.4011
0.922794 45.174 30.6609
0.929481 45.356 30.9077
0.936216 45.539 31.1414
0.943000 45.724 31.3616
0.949834 45.910 31.5682
0.956717 46.098 31.7610
0.963649 46.286 31.9398
0.970632 46.476 32.1044
0.977666 46.666 32.2547
0.984750 46.857 32.3906
0.991886 47.048 32.5119
0.999074 47.239 32.6186
1.006314 47.431 32.7105
1.013606 47.622 32.7877
1.020951 47.812 32.8499
1.028349 48.002 32.8973
1.035801 48.192 32.9298
1.043307 48.380 32.9474
1.050867 48.566 32.9503
1.058482 48.751 32.9386
1.066152 48.935 32.9128
1.073878 49.116 32.8734
1.081660 49.296 32.8214
1.089498 49.474 32.7583
1.097393 49.650 32.6859
1.105345 49.826 32.6066
1.113355 50.001 32.5225
1.121423 50.175 32.4353
1.129549 50.349 32.3463
1.137734 50.524 32.2559
1.145979 50.699 32.1645
1.154283 50.874 32.0720
1.162647 51.050 31.9780
1.171072 51.225 31.8824
1.179558 51.402 31.7848
1.188106 51.578 31.6848
1.196715 51.755 31.5821
1.205387 51.932 31.4762
1.214122 52.109 31.3669
1.222920 52.286 31.2537
1.231782 52.464 31.1364
1.240708 52.642 31.0147
1.249699 52.820 30.8881
1.258754 52.998 30.7565
1.267876 53.177 30.6195
1.277063 53.355 30.4769
1.286318 53.534 30.3283
1.295639 53.712 30.1735
1.305027 53.891 30.0123
1.314484 54.070 29.8442
1.324009 54.248 29.6693
1.333604 54.427 29.4870
1.343268 54.606 29.2973
1.353002 54.784 29.0999
1.362806 54.962 28.8945
1.372681 55.141 28.6809
1.382628 55.319 28.4589
1.392647 55.497 28.2284
1.402739 55.674 27.9891
1.412904 55.852 27.7410
1.423142 56.029 27.4842
1.433455 56.205 27.2189
1.443843 56.382 26.9456
1.454305 56.557 26.6651
1.464844 56.733 26.3788
1.475459 56.907 26.0880
1.486150 57.081 25.7942
1.496920 57.254 25.4985
1.507767 57.426 25.2016
1.518693 57.598 24.9039
1.529698 57.769 24.6054
1.540783 57.938 24.3060
1.551948 58.108 24.0056
1.563194 58.276 23.7038
1.574521 58.444 23.4004
1.585931 58.611 23.0950
1.597423 58.777 22.7873
1.608999 58.942 22.4770
1.620658 59.107 22.1637
1.632402 59.272 21.8471
1.644232 59.436 21.5268
1.656146 59.599 21.2026
1.668147 59.762 20.8740
1.680235 59.924 20.5408
1.692411 60.087 20.2026
1.704675 60.248 19.8591
1.717028 60.410 19.5100
1.729470 60.571 19.1549
1.742003 60.732 18.7935
1.754626 60.893 18.4257
1.767341 61.053 18.0510
1.780147 61.214 17.6694
1.793047 61.374 17.2808
1.806040 61.535 16.8853
1.819128 61.695 16.4832
1.832310 61.855 16.0751
1.845587 62.014 15.6618
1.858961 62.173 15.2440
1.872432 62.331 14.8225
1.886001 62.488 14.3979
1.899667 62.645 13.9705
1.913433 62.800 13.5408
1.927299 62.955 13.1090
1.941265 63.109 12.6751
1.955332 63.261 12.2393
1.969501 63.414 11.8017
1.983773 63.565 11.3622
1.998148 63.716 10.9208
2.012627 63.866 10.4775
2.027212 64.015 10.0324
2.041902 64.164 9.5851
2.056698 64.313 9.1358
2.071602 64.461 8.6842
2.086614 64.608 8.2302
2.101734 64.755 7.7737
2.116964 64.902 7.3144
2.132304 65.048 6.8521
2.147756 65.194 6.3867
2.163320 65.340 5.9180
2.178996 65.485 5.4458
2.194786 65.630 4.9699
2.210690 65.774 4.4904
2.226710 65.918 4.0073
2.242845 66.061 3.5208
2.259098 66.203 3.0313
2.275468 66.344 2.5389
2.291957 66.484 2.0441
2.308566 66.623 1.5471
2.325295 66.762 1.0483
2.342145 66.899 0.5478
2.359117 67.036 0.0461
2.376212 67.172 -0.4568
2.393431 67.308 -0.9606
2.410775 67.442 -1.4652
2.428244 67.576 -1.9704
2.445840 67.710 -2.4762
2.463564 67.843 -2.9825
2.481416 67.975 -3.4894
2.499397 68.107 -3.9968
2.517509 68.239 -4.5051
2.535752 68.370 -5.0145
2.554127 68.500 -5.5252
2.572635 68.630 -6.0378
2.591277 68.759 -6.5526
2.610055 68.888 -7.0698
2.628968 69.015 -7.5895
2.648019 69.142 -8.1115
2.667208 69.268 -8.6355
2.686535 69.392 -9.1611
2.706003 69.516 -9.6879
2.725612 69.639 -10.2156
2.745363 69.761 -10.7437
2.765257 69.883 -11.2719
2.785295 70.004 -11.7998
2.805478 70.124 -12.3270
2.825808 70.244 -12.8534
2.846285 70.363 -13.3787
2.866910 70.482 -13.9028
2.887685 70.600 -14.4260
2.908611 70.718 -14.9483
2.929688 70.835 -15.4703
2.950917 70.951 -15.9924
2.972301 71.067 -16.5151
2.993839 71.182 -17.0388
3.015534 71.295 -17.5634
3.037386 71.409 -18.0888
3.059396 71.521 -18.6148
3.081565 71.632 -19.1409
3.103896 71.743 -19.6669
3.126388 71.853 -20.1923
3.149043 71.963 -20.7166
3.171862 72.072 -21.2395
3.194847 72.180 -21.7607
3.217998 72.288 -22.2800
3.241317 72.395 -22.7972
3.264805 72.503 -23.3124
3.288463 72.609 -23.8259
3.312293 72.715 -24.3379
3.336295 72.821 -24.8490
3.360471 72.926 -25.3595
3.384822 73.030 -25.8696
3.409350 73.133 -26.3792
3.434056 73.236 -26.8883
3.458940 73.338 -27.3966
3.484005 73.440 -27.9039
3.509252 73.541 -28.4098
3.534681 73.642 -28.9142
3.560295 73.742 -29.4167
3.586094 73.842 -29.9172
3.612081 73.942 -30.4156
3.638255 74.041 -30.9118
3.664620 74.140 -31.4061
3.691175 74.239 -31.8986
3.717923 74.337 -32.3897
3.744864 74.435 -32.8796
3.772001 74.532 -33.3684
3.799335 74.629 -33.8562
3.826866 74.725 -34.3428
3.854597 74.821 -34.8283
3.882529 74.917 -35.3126
3.910664 75.013 -35.7956
3.939002 75.108 -36.2772
3.967546 75.203 -36.7575
3.996296 75.298 -37.2362
4.025255 75.392 -37.7137
4.054423 75.487 -38.1899
4.083804 75.581 -38.6650
4.113396 75.675 -39.1391
4.143204 75.769 -39.6124
4.173227 75.862 -40.0849
4.203468 75.955 -40.5568
4.233928 76.048 -41.0281
4.264609 76.140 -41.4988
4.295512 76.233 -41.9690
4.326639 76.325 -42.4387
4.357992 76.417 -42.9081
4.389572 76.509 -43.3772
4.421380 76.601 -43.8461
4.453419 76.692 -44.3149
4.485691 76.783 -44.7836
4.518196 76.874 -45.2523
4.550936 76.965 -45.7211
4.583914 77.056 -46.1899
4.617131 77.146 -46.6588
4.650589 77.236 -47.1279
4.684289 77.326 -47.5972
4.718233 77.415 -48.0668
4.752424 77.504 -48.5368
4.786862 77.593 -49.0074
4.821549 77.682 -49.4786
4.856488 77.770 -49.9505
4.891680 77.859 -50.4229
4.927127 77.946 -50.8959
4.962831 78.034 -51.3693
4.998794 78.121 -51.8431
5.035017 78.207 -52.3173
5.071503 78.294 -52.7918
5.108253 78.380 -53.2668
5.145270 78.465 -53.7422
5.182555 78.551 -54.2183
5.220110 78.635 -54.6950
5.257937 78.720 -55.1724
5.296038 78.804 -55.6501
5.334415 78.887 -56.1281
5.373071 78.970 -56.6063
5.412006 79.053 -57.0843
5.451224 79.135 -57.5622
5.490725 79.217 -58.0400
5.530514 79.298 -58.5178
5.570590 79.379 -58.9956
5.610957 79.459 -59.4735
5.651616 79.539 -59.9513
5.692570 79.619 -60.4288
5.733821 79.698 -60.9060
5.775370 79.776 -61.3825
5.817221 79.854 -61.8583
5.859375 79.932 -62.3333
5.901834 80.009 -62.8076
5.944602 80.086 -63.2813
5.987679 80.163 -63.7544
6.031068 80.239 -64.2269
6.074771 80.314 -64.6985
6.118792 80.390 -65.1693
6.163131 80.465 -65.6392
6.207792 80.539 -66.1079
6.252776 80.614 -66.5757
6.298086 80.687 -67.0426
6.343725 80.761 -67.5086
6.389694 80.834 -67.9738
6.435996 80.907 -68.4381
6.482634 80.980 -68.9017
6.529610 81.052 -69.3644
6.576926 81.124 -69.8263
6.624585 81.196 -70.2874
6.672590 81.268 -70.7479
6.720942 81.339 -71.2077
6.769645 81.410 -71.6670
6.818700 81.481 -72.1257
6.868111 81.552 -72.5840
6.917881 81.622 -73.0419
6.968010 81.692 -73.4994
7.018504 81.762 -73.9567
7.069362 81.832 -74.4137
7.120590 81.901 -74.8705
7.172189 81.970 -75.3272
7.224161 82.039 -75.7837
7.276511 82.107 -76.2400
7.329239 82.176 -76.6962
7.382350 82.244 -77.1524
7.435845 82.311 -77.6085
7.489729 82.378 -78.0645
7.544002 82.445 -78.5205
7.598669 82.512 -78.9762
7.653732 82.578 -79.4317
7.709194 82.644 -79.8870
7.765058 82.710 -80.3421
7.821327 82.775 -80.7969
7.878004 82.840 -81.2514
7.935091 82.905 -81.7054
7.992592 82.969 -82.1590
8.050510 83.033 -82.6119
8.108847 83.096 -83.0643
8.167607 83.159 -83.5160
8.226793 83.222 -83.9670
8.286408 83.285 -84.4174
8.346454 83.347 -84.8669
8.406936 83.409 -85.3156
8.467856 83.470 -85.7634
8.529218 83.532 -86.2104
8.591024 83.593 -86.6565
8.653278 83.653 -87.1017
8.715983 83.714 -87.5462
8.779143 83.774 -87.9898
8.842760 83.834 -88.4326
8.906839 83.894 -88.8747
8.971381 83.953 -89.3162
9.036392 84.012 -89.7570
9.101873 84.071 -90.1973
9.167829 84.130 -90.6371
9.234263 84.189 -91.0764
9.301178 84.247 -91.5155
9.368578 84.305 -91.9542
9.436467 84.363 -92.3928
9.504847 84.421 -92.8312
9.573723 84.479 -93.2694
9.643099 84.536 -93.7077
9.712976 84.593 -94.1459
9.783361 84.649 -94.5840
9.854255 84.706 -95.0222
9.925663 84.762 -95.4603
9.997588 84.818 -95.8985
10.070035 84.873 -96.3366
10.143007 84.928 -96.7746
10.216507 84.983 -97.2125
10.290540 85.038 -97.6501
10.365109 85.092 -98.0876
10.440219 85.145 -98.5248
10.515873 85.199 -98.9616
10.592076 85.252 -99.3980
10.668830 85.305 -99.8339
10.746141 85.357 -100.2693
10.824012 85.409 -100.7042
10.902447 85.461 -101.1384
10.981451 85.512 -101.5720
11.061027 85.563 -102.0050
11.141180 85.614 -102.4374
11.221913 85.665 -102.8691
11.303232 85.715 -103.3003
11.385140 85.765 -103.7309
11.467641 85.815 -104.1610
11.550741 85.864 -104.5907
11.634442 85.914 -105.0200
11.718750 85.963 -105.4489
11.803669 86.011 -105.8777
11.889203 86.060 -106.3062
11.975357 86.108 -106.7347
12.062136 86.156 -107.1630
12.149543 86.204 -107.5914
12.237583 86.251 -108.0199
12.326262 86.298 -108.4483
12.415583 86.345 -108.8769
12.505552 86.392 -109.3056
12.596172 86.438 -109.7344
12.687449 86.484 -110.1633
12.779387 86.529 -110.5922
12.871992 86.575 -111.0211
12.965268 86.620 -111.4500
13.059220 86.664 -111.8789
13.153852 86.708 -112.3076
13.249170 86.752 -112.7362
13.345179 86.796 -113.1646
13.441884 86.839 -113.5928
13.539289 86.882 -114.0208
13.637401 86.925 -114.4485
13.736223 86.967 -114.8759
13.835761 87.009 -115.3032
13.936021 87.051 -115.7302
14.037007 87.092 -116.1570
14.138725 87.133 -116.5837
14.241180 87.174 -117.0103
14.344377 87.215 -117.4368
14.448323 87.255 -117.8634
14.553021 87.295 -118.2901
14.658478 87.335 -118.7169
14.764700 87.374 -119.1438
14.871691 87.414 -119.5709
14.979457 87.453 -119.9983
15.088005 87.491 -120.4258
15.197339 87.529 -120.8536
15.307465 87.567 -121.2815
15.418389 87.605 -121.7095
15.530117 87.642 -122.1376
15.642655 87.679 -122.5657
15.756008 87.716 -122.9938
15.870182 87.752 -123.4218
15.985184 87.788 -123.8497
16.101019 87.824 -124.2773
16.217694 87.859 -124.7047
16.335214 87.894 -125.1319
16.453586 87.929 -125.5588
16.572815 87.963 -125.9856
16.692909 87.997 -126.4121
16.813872 88.031 -126.8385
16.935713 88.065 -127.2648
17.058436 88.098 -127.6910
17.182048 88.131 -128.1173
17.306556 88.164 -128.5436
17.431967 88.196 -128.9700
17.558286 88.228 -129.3965
17.685521 88.260 -129.8231
17.813677 88.291 -130.2497
17.942762 88.322 -130.6764
18.072783 88.353 -131.1030
18.203746 88.384 -131.5295
18.335658 88.414 -131.9557
18.468526 88.443 -132.3818
18.602356 88.473 -132.8074
18.737156 88.502 -133.2327
18.872934 88.530 -133.6576
19.009695 88.558 -134.0821
19.147447 88.586 -134.5063
19.286197 88.614 -134.9302
19.425953 88.642 -135.3539
19.566721 88.669 -135.7774
19.708510 88.696 -136.2010
19.851326 88.722 -136.6246
19.995177 88.748 -137.0483
20.140070 88.774 -137.4721
20.286013 88.799 -137.8960
20.433014 88.825 -138.3200
20.581080 88.849 -138.7441
20.730219 88.874 -139.1682
20.880439 88.898 -139.5923
21.031747 88.921 -140.0163
21.184152 88.944 -140.4402
21.337661 88.967 -140.8640
21.492282 88.990 -141.2878
21.648024 89.012 -141.7115
21.804895 89.033 -142.1353
21.962902 89.055 -142.5591
22.122054 89.076 -142.9830
22.282360 89.096 -143.4068
22.443827 89.116 -143.8304
22.606464 89.135 -144.2537
22.770280 89.154 -144.6764
22.935283 89.173 -145.0982
23.101481 89.191 -145.5188
23.268884 89.209 -145.9381
23.437500 89.226 -146.3559
23.607338 89.244 -146.7724
23.778406 89.261 -147.1875
23.950714 89.278 -147.6018
24.124271 89.294 -148.0155
24.299086 89.311 -148.4294
24.475167 89.328 -148.8439
24.652524 89.344 -149.2596
24.831166 89.361 -149.6768
25.011103 89.377 -150.0956
25.192344 89.392 -150.5162
25.374898 89.408 -150.9382
25.558775 89.422 -151.3612
25.743984 89.436 -151.7846
25.930536 89.449 -152.2078
26.118439 89.462 -152.6302
26.307704 89.474 -153.0513
26.498341 89.486 -153.4709
26.690359 89.497 -153.8889
26.883768 89.508 -154.3055
27.078579 89.518 -154.7207
27.274801 89.529 -155.1349
27.472446 89.539 -155.5486
27.671522 89.548 -155.9618
27.872042 89.558 -156.3748
28.074014 89.567 -156.7874
28.277450 89.576 -157.1997
28.482360 89.584 -157.6115
28.688755 89.592 -158.0226
28.896645 89.599 -158.4330
29.106042 89.607 -158.8428
29.316957 89.614 -159.2522
29.529400 89.621 -159.6614
29.743382 89.627 -160.0708
29.958915 89.633 -160.4808
30.176009 89.639 -160.8917
30.394677 89.645 -161.3034
30.614929 89.650 -161.7161
30.836778 89.654 -162.1294
31.060234 89.658 -162.5432
31.285309 89.661 -162.9570
31.512015 89.664 -163.3707
31.740364 89.666 -163.7838
31.970368 89.668 -164.1963
32.202039 89.669 -164.6082
32.435388 89.670 -165.0194
32.670428 89.670 -165.4301
32.907171 89.669 -165.8402
33.145630 89.668 -166.2495
33.385817 89.667 -166.6578
33.627745 89.665 -167.0647
33.871425 89.663 -167.4699
34.116871 89.660 -167.8730
34.364096 89.656 -168.2740
34.613113 89.653 -168.6730
34.863934 89.649 -169.0704
35.116572 89.645 -169.4670
35.371041 89.641 -169.8635
35.627354 89.637 -170.2605
35.885525 89.632 -170.6584
36.145566 89.627 -171.0573
36.407492 89.622 -171.4569
36.671316 89.615 -171.8564
36.937051 89.608 -172.2551
37.204712 89.600 -172.6523
37.474313 89.592 -173.0476
37.745867 89.583 -173.4410
38.019389 89.574 -173.8327
38.294893 89.565 -174.2233
38.572394 89.555 -174.6132
38.851905 89.545 -175.0026
39.133442 89.534 -175.3915
39.417019 89.522 -175.7795
39.702651 89.510 -176.1661
39.990353 89.498 -176.5508
40.280140 89.485 -176.9335
40.572026 89.472 -177.3143
40.866028 89.458 -177.6936
41.162160 89.445 -178.0718
41.460438 89.431 -178.4495
41.760877 89.417 -178.8268
42.063494 89.402 -179.2037
42.368303 89.387 -179.5803
42.675322 89.371 -179.9561
42.984565 89.355 179.6689
43.296048 89.338 179.2951
43.609789 89.321 178.9227
43.925804 89.303 178.5519
44.244108 89.285 178.1831
44.564719 89.265 177.8167
44.887654 89.246 177.4530
45.212928 89.225 177.0923
45.540560 89.204 176.7345
45.870565 89.183 176.3795
46.202962 89.161 176.0269
46.537768 89.139 175.6763
46.875000 89.116 175.3269
47.214676 89.093 174.9781
47.556813 89.070 174.6297
47.901429 89.046 174.2812
48.248542 89.022 173.9327
48.598171 88.997 173.5844
48.950334 88.971 173.2369
49.305048 88.945 172.8907
49.662333 88.919 172.5460
50.022206 88.892 172.2029
50.384688 88.865 171.8611
50.749796 88.838 171.5203
51.117550 88.810 171.1804
51.487969 88.783 170.8416
51.861072 88.755 170.5042
52.236879 88.726 170.1692
52.615409 88.697 169.8370
52.996681 88.667 169.5088
53.380717 88.637 169.1856
53.767536 88.606 168.8684
54.157158 88.575 168.5576
54.549603 88.544 168.2529
54.944892 88.513 167.9531
55.343045 88.481 167.6575
55.744084 88.449 167.3666
56.148028 88.416 167.0812
56.554900 88.383 166.8016
56.964720 88.350 166.5252
57.377510 88.318 166.2465
57.793291 88.286 165.9598
58.212085 88.253 165.6624
58.633914 88.217 165.3572
59.058799 88.179 165.0508
59.486764 88.139 164.7499
59.917829 88.098 164.4576
60.352019 88.056 164.1727
60.789354 88.015 163.8921
61.229859 87.973 163.6137
61.673556 87.932 163.3372
62.120468 87.890 163.0632
62.570618 87.849 162.7916
63.024031 87.808 162.5217
63.480729 87.767 162.2530
63.940736 87.725 161.9861
64.404077 87.684 161.7222
64.870776 87.642 161.4623
65.340856 87.600 161.2066
65.814343 87.557 160.9551
66.291261 87.514 160.7075
66.771635 87.470 160.4637
67.255489 87.427 160.2234
67.742850 87.382 159.9857
68.233743 87.337 159.7502
68.728193 87.292 159.5163
69.226226 87.246 159.2835
69.727867 87.199 159.0513
70.233144 87.152 158.8204
70.742083 87.103 158.5931
71.254709 87.054 158.3734
71.771050 87.004 158.1647
72.291132 86.954 157.9680
72.814984 86.904 157.7812
73.342631 86.856 157.6008
73.874102 86.808 157.4239
74.409424 86.760 157.2488
74.948626 86.712 157.0747
75.491734 86.664 156.9015
76.038779 86.614 156.7297
76.589787 86.564 156.5604
77.144788 86.514 156.3942
77.703811 86.462 156.2317
78.266885 86.410 156.0728
78.834039 86.357 155.9176
79.405303 86.303 155.7662
79.980706 86.250 155.6185
80.560280 86.196 155.4748
81.144053 86.142 155.3354
81.732056 86.089 155.2007
82.324320 86.035 155.0710
82.920876 85.981 154.9465
83.521755 85.928 154.8273
84.126988 85.874 154.7136
84.736607 85.820 154.6057
85.350643 85.765 154.5034
85.969129 85.711 154.4060
86.592097 85.656 154.3128
87.219579 85.600 154.2237
87.851608 85.544 154.1385
88.488217 85.488 154.0574
89.129439 85.432 153.9801
89.775308 85.375 153.9067
90.425856 85.318 153.8370
91.081119 85.261 153.7715
91.741131 85.204 153.7107
92.405925 85.146 153.6556
93.075536 85.088 153.6071
93.750000 85.031 153.5651
94.429351 84.973 153.5294
95.113625 84.915 153.4990
95.802858 84.858 153.4735
96.497085 84.800 153.4525
