* Measurement data measured by REW V5.31.3
* Source: Headset (2- CX31993 HIFI AUDIO), MICROPHONE (Master Volume), R, volume: 0.250
* Format: 256k Log Swept Sine, 1 sweep at -12.0 dBFS with no timing reference
* Dated: 12 5, 24 1:27:34 PM
* REW Settings:
*  C-weighting compensation: Off
*  Target level: 75.0 dB
* Note: ; 
* Measurement: Aoshida E20 L
* Smoothing: 1/12 octave
* Frequency Step: 96 ppo
* Start Frequency: 0.36621094 Hz
*
* Freq(Hz) SPL(dB) Phase(degrees)
0.366211 44.403 -10.4961
0.368865 44.412 -10.4441
0.371538 44.424 -10.3670
0.374230 44.440 -10.2716
0.376942 44.458 -10.1636
0.379673 44.477 -10.0473
0.382424 44.497 -9.9256
0.385196 44.518 -9.8000
0.387987 44.539 -9.6717
0.390798 44.560 -9.5409
0.393630 44.581 -9.4081
0.396483 44.603 -9.2734
0.399356 44.624 -9.1367
0.402250 44.646 -8.9980
0.405165 44.668 -8.8573
0.408101 44.690 -8.7145
0.411058 44.713 -8.5696
0.414037 44.735 -8.4226
0.417037 44.758 -8.2732
0.420059 44.781 -8.1216
0.423103 44.804 -7.9675
0.426169 44.827 -7.8110
0.429257 44.850 -7.6520
0.432368 44.874 -7.4903
0.435501 44.897 -7.3260
0.438656 44.921 -7.1589
0.441835 44.945 -6.9890
0.445037 44.970 -6.8161
0.448262 44.994 -6.6403
0.451510 45.018 -6.4615
0.454782 45.043 -6.2795
0.458077 45.068 -6.0943
0.461397 45.093 -5.9059
0.464740 45.118 -5.7141
0.468108 45.144 -5.5188
0.471500 45.169 -5.3201
0.474917 45.195 -5.1178
0.478358 45.221 -4.9118
0.481825 45.247 -4.7021
0.485316 45.274 -4.4886
0.488833 45.300 -4.2712
0.492375 45.327 -4.0499
0.495943 45.354 -3.8246
0.499537 45.381 -3.5952
0.503157 45.409 -3.3617
0.506803 45.436 -3.1240
0.510475 45.464 -2.8821
0.514175 45.492 -2.6359
0.517900 45.520 -2.3853
0.521653 45.548 -2.1304
0.525434 45.577 -1.8710
0.529241 45.606 -1.6072
0.533076 45.635 -1.3389
0.536939 45.664 -1.0661
0.540830 45.693 -0.7888
0.544749 45.723 -0.5069
0.548696 45.753 -0.2205
0.552673 45.783 0.0704
0.556677 45.813 0.3659
0.560711 45.843 0.6658
0.564774 45.874 0.9702
0.568867 45.905 1.2790
0.572989 45.936 1.5922
0.577141 45.968 1.9097
0.581324 45.999 2.2315
0.585536 46.031 2.5575
0.589779 46.063 2.8875
0.594053 46.095 3.2214
0.598358 46.128 3.5593
0.602694 46.161 3.9008
0.607061 46.194 4.2460
0.611460 46.227 4.5946
0.615891 46.260 4.9464
0.620354 46.294 5.3014
0.624849 46.328 5.6592
0.629377 46.362 6.0198
0.633938 46.397 6.3828
0.638532 46.431 6.7481
0.643159 46.466 7.1154
0.647819 46.502 7.4845
0.652514 46.537 7.8551
0.657242 46.573 8.2270
0.662005 46.609 8.5998
0.666802 46.645 8.9732
0.671634 46.681 9.3470
0.676501 46.718 9.7209
0.681403 46.755 10.0945
0.686341 46.793 10.4676
0.691314 46.831 10.8398
0.696324 46.869 11.2108
0.701370 46.908 11.5804
0.706452 46.948 11.9483
0.711571 46.989 12.3143
0.716728 47.033 12.6785
0.721921 47.081 13.0411
0.727153 47.133 13.4023
0.732422 47.192 13.7630
0.737729 47.258 14.1238
0.743075 47.332 14.4857
0.748460 47.411 14.8491
0.753883 47.496 15.2144
0.759346 47.585 15.5814
0.764849 47.678 15.9501
0.770391 47.775 16.3200
0.775974 47.874 16.6906
0.781597 47.977 17.0616
0.787261 48.083 17.4323
0.792966 48.191 17.8023
0.798712 48.303 18.1709
0.804500 48.417 18.5377
0.810329 48.534 18.9022
0.816201 48.653 19.2637
0.822116 48.776 19.6217
0.828073 48.901 19.9758
0.834074 49.029 20.3255
0.840118 49.159 20.6702
0.846206 49.292 21.0094
0.852338 49.427 21.3427
0.858514 49.565 21.6695
0.864735 49.706 21.9896
0.871001 49.848 22.3023
0.877313 49.993 22.6073
0.883670 50.140 22.9041
0.890074 50.290 23.1924
0.896524 50.441 23.4717
0.903020 50.594 23.7417
0.909564 50.750 24.0020
0.916155 50.907 24.2523
0.922794 51.066 24.4923
0.929481 51.226 24.7215
0.936216 51.388 24.9398
0.943000 51.552 25.1469
0.949834 51.716 25.3424
0.956717 51.882 25.5262
0.963649 52.049 25.6979
0.970632 52.217 25.8574
0.977666 52.386 26.0044
0.984750 52.556 26.1387
0.991886 52.726 26.2603
0.999074 52.896 26.3688
1.006314 53.067 26.4642
1.013606 53.237 26.5462
1.020951 53.408 26.6149
1.028349 53.578 26.6701
1.035801 53.748 26.7116
1.043307 53.918 26.7396
1.050867 54.086 26.7540
1.058482 54.254 26.7550
1.066152 54.420 26.7428
1.073878 54.585 26.7180
1.081660 54.750 26.6814
1.089498 54.913 26.6345
1.097393 55.075 26.5789
1.105345 55.237 26.5169
1.113355 55.399 26.4504
1.121423 55.561 26.3811
1.129549 55.723 26.3101
1.137734 55.886 26.2379
1.145979 56.050 26.1648
1.154283 56.214 26.0905
1.162647 56.379 26.0148
1.171072 56.545 25.9375
1.179558 56.711 25.8580
1.188106 56.878 25.7762
1.196715 57.045 25.6915
1.205387 57.214 25.6036
1.214122 57.382 25.5120
1.222920 57.551 25.4165
1.231782 57.721 25.3167
1.240708 57.891 25.2123
1.249699 58.062 25.1028
1.258754 58.233 24.9880
1.267876 58.404 24.8676
1.277063 58.576 24.7413
1.286318 58.748 24.6087
1.295639 58.921 24.4696
1.305027 59.093 24.3237
1.314484 59.266 24.1707
1.324009 59.439 24.0104
1.333604 59.612 23.8424
1.343268 59.785 23.6666
1.353002 59.958 23.4826
1.362806 60.131 23.2903
1.372681 60.304 23.0893
1.382628 60.477 22.8795
1.392647 60.649 22.6606
1.402739 60.822 22.4326
1.412904 60.994 22.1952
1.423142 61.165 21.9487
1.433455 61.337 21.6932
1.443843 61.507 21.4292
1.454305 61.678 21.1577
1.464844 61.847 20.8800
1.475459 62.016 20.5974
1.486150 62.185 20.3116
1.496920 62.353 20.0236
1.507767 62.520 19.7343
1.518693 62.687 19.4438
1.529698 62.853 19.1524
1.540783 63.018 18.8600
1.551948 63.183 18.5662
1.563194 63.348 18.2707
1.574521 63.511 17.9734
1.585931 63.675 17.6738
1.597423 63.837 17.3715
1.608999 64.000 17.0662
1.620658 64.161 16.7576
1.632402 64.323 16.4452
1.644232 64.484 16.1288
1.656146 64.644 15.8079
1.668147 64.804 15.4822
1.680235 64.964 15.1513
1.692411 65.124 14.8150
1.704675 65.283 14.4728
1.717028 65.442 14.1243
1.729470 65.601 13.7694
1.742003 65.759 13.4075
1.754626 65.918 13.0385
1.767341 66.076 12.6620
1.780147 66.234 12.2779
1.793047 66.392 11.8861
1.806040 66.550 11.4868
1.819128 66.707 11.0802
1.832310 66.865 10.6671
1.845587 67.022 10.2482
1.858961 67.178 9.8244
1.872432 67.334 9.3965
1.886001 67.488 8.9652
1.899667 67.642 8.5308
1.913433 67.796 8.0937
1.927299 67.948 7.6542
1.941265 68.100 7.2123
1.955332 68.251 6.7681
1.969501 68.401 6.3217
1.983773 68.551 5.8730
1.998148 68.700 5.4220
2.012627 68.848 4.9688
2.027212 68.996 4.5131
2.041902 69.143 4.0549
2.056698 69.290 3.5940
2.071602 69.436 3.1304
2.086614 69.582 2.6637
2.101734 69.728 2.1939
2.116964 69.873 1.7207
2.132304 70.017 1.2438
2.147756 70.162 0.7631
2.163320 70.306 0.2783
2.178996 70.450 -0.2107
2.194786 70.593 -0.7040
2.210690 70.736 -1.2017
2.226710 70.878 -1.7036
2.242845 71.019 -2.2094
2.259098 71.160 -2.7189
2.275468 71.299 -3.2317
2.291957 71.438 -3.7475
2.308566 71.576 -4.2659
2.325295 71.712 -4.7866
2.342145 71.849 -5.3093
2.359117 71.984 -5.8338
2.376212 72.119 -6.3599
2.393431 72.252 -6.8874
2.410775 72.386 -7.4161
2.428244 72.518 -7.9459
2.445840 72.650 -8.4768
2.463564 72.782 -9.0088
2.481416 72.913 -9.5419
2.499397 73.043 -10.0762
2.517509 73.173 -10.6119
2.535752 73.303 -11.1494
2.554127 73.432 -11.6891
2.572635 73.560 -12.2313
2.591277 73.688 -12.7765
2.610055 73.814 -13.3249
2.628968 73.940 -13.8765
2.648019 74.065 -14.4311
2.667208 74.189 -14.9883
2.686535 74.312 -15.5479
2.706003 74.434 -16.1092
2.725612 74.555 -16.6719
2.745363 74.676 -17.2355
2.765257 74.795 -17.7997
2.785295 74.914 -18.3639
2.805478 75.033 -18.9279
2.825808 75.150 -19.4915
2.846285 75.267 -20.0544
2.866910 75.384 -20.6166
2.887685 75.500 -21.1782
2.908611 75.615 -21.7396
2.929688 75.730 -22.3012
2.950917 75.844 -22.8637
2.972301 75.957 -23.4277
2.993839 76.070 -23.9933
3.015534 76.181 -24.5607
3.037386 76.291 -25.1296
3.059396 76.401 -25.6998
3.081565 76.510 -26.2708
3.103896 76.618 -26.8420
3.126388 76.725 -27.4131
3.149043 76.831 -27.9835
3.171862 76.937 -28.5527
3.194847 77.042 -29.1204
3.217998 77.147 -29.6863
3.241317 77.251 -30.2504
3.264805 77.355 -30.8126
3.288463 77.458 -31.3734
3.312293 77.560 -31.9332
3.336295 77.662 -32.4926
3.360471 77.763 -33.0520
3.384822 77.863 -33.6116
3.409350 77.962 -34.1713
3.434056 78.061 -34.7310
3.458940 78.158 -35.2904
3.484005 78.255 -35.8490
3.509252 78.352 -36.4064
3.534681 78.448 -36.9623
3.560295 78.543 -37.5162
3.586094 78.639 -38.0680
3.612081 78.733 -38.6175
3.638255 78.827 -39.1647
3.664620 78.921 -39.7099
3.691175 79.015 -40.2534
3.717923 79.107 -40.7957
3.744864 79.199 -41.3369
3.772001 79.291 -41.8773
3.799335 79.382 -42.4168
3.826866 79.472 -42.9553
3.854597 79.562 -43.4927
3.882529 79.652 -44.0287
3.910664 79.741 -44.5631
3.939002 79.830 -45.0958
3.967546 79.918 -45.6266
3.996296 80.007 -46.1556
4.025255 80.095 -46.6827
4.054423 80.182 -47.2083
4.083804 80.269 -47.7325
4.113396 80.356 -48.2556
4.143204 80.443 -48.7776
4.173227 80.529 -49.2987
4.203468 80.615 -49.8189
4.233928 80.700 -50.3382
4.264609 80.786 -50.8566
4.295512 80.871 -51.3741
4.326639 80.955 -51.8906
4.357992 81.040 -52.4063
4.389572 81.124 -52.9212
4.421380 81.208 -53.4354
4.453419 81.292 -53.9491
4.485691 81.376 -54.4624
4.518196 81.459 -54.9753
4.550936 81.542 -55.4880
4.583914 81.625 -56.0005
4.617131 81.707 -56.5128
4.650589 81.789 -57.0250
4.684289 81.871 -57.5371
4.718233 81.953 -58.0493
4.752424 82.034 -58.5617
4.786862 82.115 -59.0743
4.821549 82.196 -59.5873
4.856488 82.277 -60.1008
4.891680 82.357 -60.6148
4.927127 82.437 -61.1292
4.962831 82.517 -61.6439
4.998794 82.596 -62.1591
5.035017 82.675 -62.6745
5.071503 82.753 -63.1904
5.108253 82.831 -63.7068
5.145270 82.909 -64.2237
5.182555 82.986 -64.7414
5.220110 83.063 -65.2599
5.257937 83.140 -65.7792
5.296038 83.216 -66.2990
5.334415 83.292 -66.8193
5.373071 83.367 -67.3399
5.412006 83.441 -67.8606
5.451224 83.516 -68.3814
5.490725 83.589 -68.9024
5.530514 83.663 -69.4237
5.570590 83.735 -69.9453
5.610957 83.808 -70.4672
5.651616 83.879 -70.9894
5.692570 83.950 -71.5116
5.733821 84.021 -72.0336
5.775370 84.091 -72.5551
5.817221 84.161 -73.0761
5.859375 84.230 -73.5965
5.901834 84.299 -74.1164
5.944602 84.367 -74.6359
5.987679 84.434 -75.1549
6.031068 84.501 -75.6734
6.074771 84.568 -76.1913
6.118792 84.634 -76.7082
6.163131 84.700 -77.2241
6.207792 84.765 -77.7388
6.252776 84.830 -78.2525
6.298086 84.894 -78.7651
6.343725 84.958 -79.2768
6.389694 85.022 -79.7875
6.435996 85.085 -80.2971
6.482634 85.147 -80.8058
6.529610 85.210 -81.3133
6.576926 85.272 -81.8196
6.624585 85.334 -82.3249
6.672590 85.395 -82.8292
6.720942 85.456 -83.3325
6.769645 85.517 -83.8349
6.818700 85.577 -84.3366
6.868111 85.637 -84.8375
6.917881 85.697 -85.3377
6.968010 85.757 -85.8372
7.018504 85.816 -86.3363
7.069362 85.875 -86.8348
7.120590 85.934 -87.3329
7.172189 85.992 -87.8307
7.224161 86.050 -88.3282
7.276511 86.108 -88.8256
7.329239 86.166 -89.3228
7.382350 86.223 -89.8200
7.435845 86.280 -90.3171
7.489729 86.336 -90.8143
7.544002 86.392 -91.3114
7.598669 86.448 -91.8085
7.653732 86.504 -92.3056
7.709194 86.559 -92.8027
7.765058 86.613 -93.2997
7.821327 86.667 -93.7967
7.878004 86.721 -94.2935
7.935091 86.774 -94.7901
7.992592 86.827 -95.2863
8.050510 86.879 -95.7819
8.108847 86.931 -96.2770
8.167607 86.982 -96.7714
8.226793 87.033 -97.2651
8.286408 87.084 -97.7579
8.346454 87.134 -98.2495
8.406936 87.183 -98.7398
8.467856 87.232 -99.2288
8.529218 87.281 -99.7163
8.591024 87.329 -100.2022
8.653278 87.376 -100.6866
8.715983 87.424 -101.1691
8.779143 87.471 -101.6498
8.842760 87.517 -102.1286
8.906839 87.564 -102.6056
8.971381 87.610 -103.0806
9.036392 87.655 -103.5539
9.101873 87.701 -104.0254
9.167829 87.747 -104.4952
9.234263 87.792 -104.9635
9.301178 87.837 -105.4303
9.368578 87.882 -105.8959
9.436467 87.927 -106.3604
9.504847 87.972 -106.8241
9.573723 88.016 -107.2872
9.643099 88.061 -107.7499
9.712976 88.106 -108.2124
9.783361 88.150 -108.6750
9.854255 88.194 -109.1380
9.925663 88.239 -109.6015
9.997588 88.283 -110.0657
10.070035 88.326 -110.5307
10.143007 88.370 -110.9968
10.216507 88.413 -111.4640
10.290540 88.456 -111.9323
10.365109 88.499 -112.4019
10.440219 88.541 -112.8725
10.515873 88.582 -113.3442
10.592076 88.624 -113.8168
10.668830 88.664 -114.2900
10.746141 88.704 -114.7637
10.824012 88.743 -115.2376
10.902447 88.782 -115.7114
10.981451 88.820 -116.1847
11.061027 88.857 -116.6571
11.141180 88.894 -117.1284
11.221913 88.930 -117.5981
11.303232 88.965 -118.0659
11.385140 89.000 -118.5315
11.467641 89.034 -118.9945
11.550741 89.067 -119.4548
11.634442 89.100 -119.9121
11.718750 89.133 -120.3664
11.803669 89.165 -120.8175
11.889203 89.197 -121.2655
11.975357 89.229 -121.7105
12.062136 89.261 -122.1526
12.149543 89.293 -122.5922
12.237583 89.324 -123.0294
12.326262 89.356 -123.4646
12.415583 89.387 -123.8983
12.505552 89.419 -124.3307
12.596172 89.451 -124.7625
12.687449 89.482 -125.1938
12.779387 89.514 -125.6252
12.871992 89.545 -126.0569
12.965268 89.577 -126.4893
13.059220 89.608 -126.9225
13.153852 89.639 -127.3567
13.249170 89.670 -127.7920
13.345179 89.701 -128.2283
13.441884 89.731 -128.6655
13.539289 89.761 -129.1036
13.637401 89.790 -129.5423
13.736223 89.819 -129.9813
13.835761 89.847 -130.4203
13.936021 89.875 -130.8591
14.037007 89.902 -131.2974
14.138725 89.929 -131.7350
14.241180 89.956 -132.1716
14.344377 89.981 -132.6071
14.448323 90.007 -133.0413
14.553021 90.032 -133.4743
14.658478 90.057 -133.9062
14.764700 90.082 -134.3369
14.871691 90.106 -134.7666
14.979457 90.130 -135.1956
15.088005 90.154 -135.6238
15.197339 90.178 -136.0517
15.307465 90.201 -136.4792
15.418389 90.225 -136.9066
15.530117 90.247 -137.3339
15.642655 90.270 -137.7611
15.756008 90.292 -138.1883
15.870182 90.314 -138.6154
15.985184 90.336 -139.0422
16.101019 90.357 -139.4686
16.217694 90.378 -139.8946
16.335214 90.398 -140.3198
16.453586 90.418 -140.7443
16.572815 90.438 -141.1678
16.692909 90.458 -141.5905
16.813872 90.477 -142.0123
16.935713 90.496 -142.4332
17.058436 90.514 -142.8534
17.182048 90.533 -143.2731
17.306556 90.551 -143.6925
17.431967 90.570 -144.1117
17.558286 90.588 -144.5309
17.685521 90.605 -144.9504
17.813677 90.623 -145.3701
17.942762 90.640 -145.7901
18.072783 90.657 -146.2105
18.203746 90.673 -146.6310
18.335658 90.689 -147.0517
18.468526 90.705 -147.4722
18.602356 90.720 -147.8924
18.737156 90.735 -148.3120
18.872934 90.750 -148.7309
19.009695 90.764 -149.1490
19.147447 90.777 -149.5660
19.286197 90.791 -149.9819
19.425953 90.804 -150.3968
19.566721 90.817 -150.8106
19.708510 90.829 -151.2234
19.851326 90.841 -151.6355
19.995177 90.854 -152.0468
20.140070 90.865 -152.4576
20.286013 90.877 -152.8680
20.433014 90.888 -153.2781
20.581080 90.899 -153.6879
20.730219 90.910 -154.0976
20.880439 90.921 -154.5069
21.031747 90.931 -154.9160
21.184152 90.940 -155.3246
21.337661 90.950 -155.7326
21.492282 90.958 -156.1400
21.648024 90.967 -156.5464
21.804895 90.975 -156.9518
21.962902 90.983 -157.3561
22.122054 90.991 -157.7592
22.282360 90.998 -158.1611
22.443827 91.005 -158.5619
22.606464 91.012 -158.9619
22.770280 91.018 -159.3613
22.935283 91.025 -159.7604
23.101481 91.031 -160.1596
23.268884 91.037 -160.5591
23.437500 91.043 -160.9594
23.607338 91.048 -161.3604
23.778406 91.053 -161.7621
23.950714 91.058 -162.1644
24.124271 91.062 -162.5668
24.299086 91.065 -162.9688
24.475167 91.068 -163.3698
24.652524 91.070 -163.7691
24.831166 91.071 -164.1664
25.011103 91.072 -164.5612
25.192344 91.073 -164.9536
25.374898 91.074 -165.3438
25.558775 91.075 -165.7323
25.743984 91.075 -166.1197
25.930536 91.076 -166.5069
26.118439 91.077 -166.8947
26.307704 91.077 -167.2836
26.498341 91.078 -167.6740
26.690359 91.078 -168.0661
26.883768 91.077 -168.4595
27.078579 91.076 -168.8538
27.274801 91.074 -169.2482
27.472446 91.072 -169.6421
27.671522 91.069 -170.0348
27.872042 91.066 -170.4258
28.074014 91.062 -170.8150
28.277450 91.058 -171.2024
28.482360 91.053 -171.5882
28.688755 91.049 -171.9728
28.896645 91.044 -172.3566
29.106042 91.039 -172.7398
29.316957 91.034 -173.1226
29.529400 91.028 -173.5049
29.743382 91.022 -173.8865
29.958915 91.016 -174.2671
30.176009 91.009 -174.6465
30.394677 91.002 -175.0246
30.614929 90.995 -175.4012
30.836778 90.987 -175.7766
31.060234 90.979 -176.1511
31.285309 90.971 -176.5249
31.512015 90.963 -176.8982
31.740364 90.955 -177.2713
31.970368 90.946 -177.6443
32.202039 90.937 -178.0170
32.435388 90.927 -178.3894
32.670428 90.917 -178.7615
32.907171 90.907 -179.1335
33.145630 90.896 -179.5056
33.385817 90.885 -179.8779
33.627745 90.874 179.7491
33.871425 90.862 179.3756
34.116871 90.850 179.0016
34.364096 90.837 178.6277
34.613113 90.823 178.2546
34.863934 90.808 177.8830
35.116572 90.793 177.5134
35.371041 90.778 177.1460
35.627354 90.762 176.7805
35.885525 90.746 176.4164
36.145566 90.730 176.0526
36.407492 90.714 175.6885
36.671316 90.698 175.3235
36.937051 90.681 174.9577
37.204712 90.663 174.5916
37.474313 90.645 174.2260
37.745867 90.626 173.8619
38.019389 90.606 173.5002
38.294893 90.586 173.1414
38.572394 90.566 172.7851
38.851905 90.546 172.4309
39.133442 90.526 172.0780
39.417019 90.505 171.7258
39.702651 90.485 171.3735
39.990353 90.464 171.0213
40.280140 90.442 170.6691
40.572026 90.420 170.3176
40.866028 90.398 169.9672
41.162160 90.375 169.6183
41.460438 90.351 169.2713
41.760877 90.327 168.9260
42.063494 90.303 168.5823
42.368303 90.278 168.2397
42.675322 90.253 167.8979
42.984565 90.227 167.5565
43.296048 90.200 167.2157
43.609789 90.173 166.8759
43.925804 90.145 166.5381
44.244108 90.116 166.2031
44.564719 90.086 165.8718
44.887654 90.055 165.5444
45.212928 90.025 165.2209
45.540560 89.994 164.9006
45.870565 89.962 164.5827
46.202962 89.931 164.2667
46.537768 89.899 163.9529
46.875000 89.867 163.6416
47.214676 89.834 163.3338
47.556813 89.801 163.0300
47.901429 89.769 162.7302
48.248542 89.736 162.4338
48.598171 89.704 162.1397
48.950334 89.672 161.8469
49.305048 89.640 161.5546
49.662333 89.609 161.2622
50.022206 89.577 160.9695
50.384688 89.546 160.6761
50.749796 89.514 160.3816
51.117550 89.482 160.0854
51.487969 89.449 159.7874
51.861072 89.416 159.4877
52.236879 89.382 159.1869
52.615409 89.346 158.8857
52.996681 89.310 158.5847
53.380717 89.273 158.2846
53.767536 89.234 157.9857
54.157158 89.195 157.6884
54.549603 89.154 157.3930
54.944892 89.113 157.0994
55.343045 89.072 156.8067
55.744084 89.029 156.5143
56.148028 88.986 156.2224
56.554900 88.942 155.9334
56.964720 88.896 155.6510
57.377510 88.851 155.3781
57.793291 88.806 155.1144
58.212085 88.763 154.8554
58.633914 88.722 154.5942
59.058799 88.681 154.3255
59.486764 88.640 154.0488
59.917829 88.598 153.7679
60.352019 88.555 153.4889
60.789354 88.511 153.2163
61.229859 88.467 152.9517
61.673556 88.422 152.6943
62.120468 88.376 152.4431
62.570618 88.330 152.1974
63.024031 88.284 151.9573
63.480729 88.237 151.7224
63.940736 88.189 151.4921
64.404077 88.140 151.2659
64.870776 88.091 151.0431
65.340856 88.041 150.8228
65.814343 87.990 150.6039
66.291261 87.938 150.3853
66.771635 87.886 150.1661
67.255489 87.832 149.9458
67.742850 87.778 149.7241
68.233743 87.723 149.5010
68.728193 87.666 149.2772
69.226226 87.610 149.0530
69.727867 87.552 148.8295
70.233144 87.493 148.6095
70.742083 87.434 148.3973
71.254709 87.374 148.1978
71.771050 87.314 148.0128
72.291132 87.257 147.8393
72.814984 87.201 147.6712
73.342631 87.146 147.5036
73.874102 87.091 147.3354
74.409424 87.037 147.1685
74.948626 86.981 147.0050
75.491734 86.925 146.8458
76.038779 86.869 146.6912
76.589787 86.811 146.5414
77.144788 86.752 146.3970
77.703811 86.692 146.2580
78.266885 86.631 146.1239
78.834039 86.570 145.9943
79.405303 86.508 145.8687
79.980706 86.445 145.7465
80.560280 86.382 145.6270
81.144053 86.319 145.5098
81.732056 86.255 145.3950
82.324320 86.191 145.2834
82.920876 86.127 145.1759
83.521755 86.062 145.0733
84.126988 85.997 144.9762
84.736607 85.931 144.8853
85.350643 85.866 144.8015
85.969129 85.799 144.7250
86.592097 85.732 144.6561
87.219579 85.665 144.5949
87.851608 85.597 144.5417
88.488217 85.529 144.4966
89.129439 85.461 144.4592
89.775308 85.394 144.4280
90.425856 85.327 144.4006
91.081119 85.260 144.3754
91.741131 85.193 144.3524
92.405925 85.126 144.3328
93.075536 85.059 144.3174
93.750000 84.993 144.3066
94.429351 84.926 144.3003
95.113625 84.858 144.2990
95.802858 84.791 144.3034
96.497085 84.723 144.3144
