* Measurement data measured by REW V5.31.3
* Source: Headset (2- CX31993 HIFI AUDIO), MICROPHONE (Master Volume), R, volume: 0.400
* Format: 256k Log Swept Sine, 1 sweep at -11.9 dBFS with no timing reference
* Dated: 08 4, 25 6:18:41 PM
* REW Settings:
*  C-weighting compensation: Off
*  Target level: 75.0 dB
* Note: ; 
* Measurement: CrinEar Daybreak  JVC L
* Smoothing: 1/12 octave
* Frequency Step: 96 ppo
* Start Frequency: 0.36621094 Hz
*
* Freq(Hz) SPL(dB) Phase(degrees)
0.366211 44.319 -28.5487
0.368865 44.322 -28.6047
0.371538 44.327 -28.6884
0.374230 44.332 -28.7928
0.376942 44.339 -28.9121
0.379673 44.346 -29.0419
0.382424 44.353 -29.1795
0.385196 44.361 -29.3231
0.387987 44.369 -29.4717
0.390798 44.377 -29.6248
0.393630 44.384 -29.7820
0.396483 44.392 -29.9432
0.399356 44.400 -30.1084
0.402250 44.409 -30.2776
0.405165 44.417 -30.4507
0.408101 44.425 -30.6278
0.411058 44.433 -30.8090
0.414037 44.441 -30.9942
0.417037 44.450 -31.1834
0.420059 44.458 -31.3767
0.423103 44.467 -31.5742
0.426169 44.475 -31.7758
0.429257 44.484 -31.9815
0.432368 44.493 -32.1915
0.435501 44.501 -32.4056
0.438656 44.510 -32.6240
0.441835 44.519 -32.8467
0.445037 44.528 -33.0736
0.448262 44.537 -33.3048
0.451510 44.546 -33.5404
0.454782 44.555 -33.7802
0.458077 44.564 -34.0245
0.461397 44.574 -34.2731
0.464740 44.583 -34.5261
0.468108 44.593 -34.7835
0.471500 44.602 -35.0453
0.474917 44.612 -35.3116
0.478358 44.621 -35.5824
0.481825 44.631 -35.8576
0.485316 44.641 -36.1374
0.488833 44.650 -36.4216
0.492375 44.660 -36.7104
0.495943 44.670 -37.0037
0.499537 44.680 -37.3016
0.503157 44.690 -37.6041
0.506803 44.701 -37.9112
0.510475 44.711 -38.2228
0.514175 44.721 -38.5392
0.517900 44.732 -38.8601
0.521653 44.742 -39.1858
0.525434 44.753 -39.5161
0.529241 44.763 -39.8512
0.533076 44.774 -40.1910
0.536939 44.785 -40.5356
0.540830 44.796 -40.8849
0.544749 44.807 -41.2391
0.548696 44.818 -41.5982
0.552673 44.829 -41.9621
0.556677 44.840 -42.3309
0.560711 44.851 -42.7046
0.564774 44.863 -43.0834
0.568867 44.874 -43.4672
0.572989 44.885 -43.8560
0.577141 44.897 -44.2500
0.581324 44.909 -44.6491
0.585536 44.921 -45.0535
0.589779 44.932 -45.4631
0.594053 44.944 -45.8781
0.598358 44.956 -46.2985
0.602694 44.968 -46.7244
0.607061 44.981 -47.1558
0.611460 44.993 -47.5929
0.615891 45.005 -48.0358
0.620354 45.018 -48.4844
0.624849 45.030 -48.9390
0.629377 45.043 -49.3996
0.633938 45.056 -49.8664
0.638532 45.069 -50.3394
0.643159 45.082 -50.8189
0.647819 45.095 -51.3049
0.652514 45.108 -51.7976
0.657242 45.121 -52.2971
0.662005 45.134 -52.8037
0.666802 45.148 -53.3175
0.671634 45.161 -53.8387
0.676501 45.175 -54.3675
0.681403 45.188 -54.9041
0.686341 45.202 -55.4488
0.691314 45.216 -56.0018
0.696324 45.230 -56.5634
0.701370 45.245 -57.1338
0.706452 45.259 -57.7134
0.711571 45.274 -58.3025
0.716728 45.290 -58.9015
0.721921 45.307 -59.5107
0.727153 45.325 -60.1307
0.732422 45.344 -60.7618
0.737729 45.366 -61.4043
0.743075 45.390 -62.0586
0.748460 45.414 -62.7245
0.753883 45.440 -63.4022
0.759346 45.467 -64.0915
0.764849 45.495 -64.7922
0.770391 45.523 -65.5039
0.775974 45.552 -66.2264
0.781597 45.581 -66.9594
0.787261 45.611 -67.7027
0.792966 45.641 -68.4558
0.798712 45.671 -69.2186
0.804500 45.702 -69.9906
0.810329 45.734 -70.7716
0.816201 45.766 -71.5612
0.822116 45.799 -72.3592
0.828073 45.832 -73.1653
0.834074 45.866 -73.9793
0.840118 45.900 -74.8008
0.846206 45.935 -75.6297
0.852338 45.971 -76.4657
0.858514 46.008 -77.3086
0.864735 46.045 -78.1583
0.871001 46.083 -79.0145
0.877313 46.122 -79.8771
0.883670 46.161 -80.7461
0.890074 46.202 -81.6213
0.896524 46.243 -82.5028
0.903020 46.285 -83.3903
0.909564 46.328 -84.2841
0.916155 46.373 -85.1840
0.922794 46.418 -86.0903
0.929481 46.464 -87.0029
0.936216 46.511 -87.9220
0.943000 46.559 -88.8478
0.949834 46.609 -89.7805
0.956717 46.659 -90.7204
0.963649 46.711 -91.6676
0.970632 46.764 -92.6227
0.977666 46.819 -93.5858
0.984750 46.874 -94.5573
0.991886 46.932 -95.5378
0.999074 46.990 -96.5277
1.006314 47.050 -97.5275
1.013606 47.112 -98.5378
1.020951 47.175 -99.5590
1.028349 47.240 -100.5919
1.035801 47.307 -101.6370
1.043307 47.375 -102.6951
1.050867 47.446 -103.7668
1.058482 47.518 -104.8529
1.066152 47.592 -105.9538
1.073878 47.668 -107.0701
1.081660 47.746 -108.2022
1.089498 47.826 -109.3498
1.097393 47.909 -110.5125
1.105345 47.994 -111.6892
1.113355 48.082 -112.8783
1.121423 48.172 -114.0781
1.129549 48.264 -115.2870
1.137734 48.360 -116.5032
1.145979 48.457 -117.7253
1.154283 48.558 -118.9520
1.162647 48.661 -120.1820
1.171072 48.766 -121.4141
1.179558 48.874 -122.6474
1.188106 48.985 -123.8810
1.196715 49.098 -125.1142
1.205387 49.213 -126.3461
1.214122 49.331 -127.5761
1.222920 49.451 -128.8039
1.231782 49.574 -130.0289
1.240708 49.698 -131.2508
1.249699 49.825 -132.4694
1.258754 49.954 -133.6845
1.267876 50.086 -134.8961
1.277063 50.219 -136.1043
1.286318 50.354 -137.3090
1.295639 50.492 -138.5106
1.305027 50.631 -139.7091
1.314484 50.771 -140.9050
1.324009 50.914 -142.0986
1.333604 51.058 -143.2904
1.343268 51.204 -144.4807
1.353002 51.351 -145.6701
1.362806 51.500 -146.8592
1.372681 51.650 -148.0486
1.382628 51.801 -149.2388
1.392647 51.953 -150.4304
1.402739 52.107 -151.6239
1.412904 52.261 -152.8199
1.423142 52.416 -154.0184
1.433455 52.572 -155.2194
1.443843 52.729 -156.4223
1.454305 52.887 -157.6256
1.464844 53.046 -158.8273
1.475459 53.207 -160.0245
1.486150 53.370 -161.2142
1.496920 53.534 -162.3941
1.507767 53.702 -163.5621
1.518693 53.871 -164.7174
1.529698 54.043 -165.8594
1.540783 54.217 -166.9880
1.551948 54.393 -168.1038
1.563194 54.572 -169.2071
1.574521 54.752 -170.2989
1.585931 54.935 -171.3801
1.597423 55.120 -172.4515
1.608999 55.306 -173.5144
1.620658 55.494 -174.5700
1.632402 55.684 -175.6193
1.644232 55.875 -176.6638
1.656146 56.067 -177.7046
1.668147 56.261 -178.7432
1.680235 56.456 -179.7807
1.692411 56.652 179.1815
1.704675 56.848 178.1419
1.717028 57.046 177.0994
1.729470 57.243 176.0527
1.742003 57.442 175.0005
1.754626 57.640 173.9418
1.767341 57.838 172.8757
1.780147 58.037 171.8014
1.793047 58.235 170.7188
1.806040 58.433 169.6285
1.819128 58.631 168.5319
1.832310 58.829 167.4312
1.845587 59.028 166.3295
1.858961 59.226 165.2300
1.872432 59.425 164.1355
1.886001 59.624 163.0479
1.899667 59.824 161.9684
1.913433 60.025 160.8976
1.927299 60.226 159.8357
1.941265 60.428 158.7824
1.955332 60.630 157.7372
1.969501 60.832 156.6995
1.983773 61.036 155.6684
1.998148 61.239 154.6430
2.012627 61.443 153.6223
2.027212 61.647 152.6053
2.041902 61.852 151.5907
2.056698 62.056 150.5774
2.071602 62.261 149.5641
2.086614 62.466 148.5497
2.101734 62.671 147.5330
2.116964 62.876 146.5128
2.132304 63.082 145.4881
2.147756 63.287 144.4585
2.163320 63.492 143.4236
2.178996 63.696 142.3839
2.194786 63.901 141.3407
2.210690 64.106 140.2958
2.226710 64.310 139.2514
2.242845 64.514 138.2096
2.259098 64.718 137.1719
2.275468 64.921 136.1392
2.291957 65.125 135.1119
2.308566 65.328 134.0902
2.325295 65.531 133.0737
2.342145 65.734 132.0619
2.359117 65.937 131.0541
2.376212 66.139 130.0496
2.393431 66.342 129.0473
2.410775 66.544 128.0463
2.428244 66.746 127.0455
2.445840 66.948 126.0437
2.463564 67.149 125.0400
2.481416 67.351 124.0331
2.499397 67.552 123.0222
2.517509 67.753 122.0067
2.535752 67.954 120.9862
2.554127 68.154 119.9611
2.572635 68.355 118.9323
2.591277 68.554 117.9012
2.610055 68.754 116.8691
2.628968 68.952 115.8376
2.648019 69.151 114.8074
2.667208 69.348 113.7793
2.686535 69.545 112.7535
2.706003 69.742 111.7300
2.725612 69.938 110.7088
2.745363 70.134 109.6893
2.765257 70.329 108.6711
2.785295 70.524 107.6534
2.805478 70.718 106.6355
2.825808 70.912 105.6166
2.846285 71.105 104.5957
2.866910 71.298 103.5721
2.887685 71.491 102.5450
2.908611 71.683 101.5141
2.929688 71.875 100.4792
2.950917 72.066 99.4409
2.972301 72.256 98.3997
2.993839 72.446 97.3567
3.015534 72.635 96.3127
3.037386 72.823 95.2685
3.059396 73.010 94.2247
3.081565 73.197 93.1818
3.103896 73.383 92.1398
3.126388 73.568 91.0988
3.149043 73.753 90.0587
3.171862 73.937 89.0190
3.194847 74.120 87.9792
3.217998 74.303 86.9389
3.241317 74.485 85.8971
3.264805 74.666 84.8533
3.288463 74.847 83.8069
3.312293 75.027 82.7574
3.336295 75.206 81.7049
3.360471 75.384 80.6497
3.384822 75.562 79.5925
3.409350 75.738 78.5341
3.434056 75.914 77.4751
3.458940 76.088 76.4164
3.484005 76.262 75.3583
3.509252 76.435 74.3013
3.534681 76.607 73.2454
3.560295 76.778 72.1907
3.586094 76.948 71.1367
3.612081 77.118 70.0830
3.638255 77.287 69.0288
3.664620 77.455 67.9734
3.691175 77.622 66.9161
3.717923 77.788 65.8566
3.744864 77.953 64.7950
3.772001 78.117 63.7320
3.799335 78.279 62.6682
3.826866 78.441 61.6046
3.854597 78.602 60.5419
3.882529 78.762 59.4807
3.910664 78.921 58.4217
3.939002 79.079 57.3647
3.967546 79.236 56.3099
3.996296 79.392 55.2565
4.025255 79.548 54.2039
4.054423 79.702 53.1513
4.083804 79.855 52.0979
4.113396 80.008 51.0436
4.143204 80.159 49.9887
4.173227 80.309 48.9339
4.203468 80.458 47.8800
4.233928 80.606 46.8278
4.264609 80.753 45.7782
4.295512 80.899 44.7316
4.326639 81.044 43.6882
4.357992 81.188 42.6479
4.389572 81.332 41.6099
4.421380 81.474 40.5736
4.453419 81.615 39.5383
4.485691 81.756 38.5036
4.518196 81.895 37.4696
4.550936 82.033 36.4369
4.583914 82.171 35.4062
4.617131 82.307 34.3783
4.650589 82.443 33.3537
4.684289 82.577 32.3329
4.718233 82.711 31.3159
4.752424 82.845 30.3024
4.786862 82.977 29.2918
4.821549 83.108 28.2835
4.856488 83.239 27.2771
4.891680 83.368 26.2726
4.927127 83.497 25.2701
4.962831 83.625 24.2705
4.998794 83.752 23.2739
5.035017 83.879 22.2810
5.071503 84.005 21.2919
5.108253 84.130 20.3064
5.145270 84.255 19.3242
5.182555 84.379 18.3448
5.220110 84.502 17.3679
5.257937 84.624 16.3932
5.296038 84.746 15.4208
5.334415 84.867 14.4510
5.373071 84.988 13.4840
5.412006 85.108 12.5200
5.451224 85.228 11.5589
5.490725 85.347 10.6006
5.530514 85.465 9.6448
5.570590 85.583 8.6910
5.610957 85.701 7.7390
5.651616 85.817 6.7889
5.692570 85.934 5.8405
5.733821 86.050 4.8939
5.775370 86.165 3.9492
5.817221 86.280 3.0062
5.859375 86.394 2.0647
5.901834 86.508 1.1244
5.944602 86.621 0.1851
5.987679 86.734 -0.7534
6.031068 86.846 -1.6912
6.074771 86.957 -2.6281
6.118792 87.068 -3.5642
6.163131 87.179 -4.4996
6.207792 87.288 -5.4343
6.252776 87.398 -6.3689
6.298086 87.506 -7.3033
6.343725 87.614 -8.2378
6.389694 87.721 -9.1723
6.435996 87.827 -10.1067
6.482634 87.933 -11.0406
6.529610 88.038 -11.9744
6.576926 88.142 -12.9077
6.624585 88.245 -13.8411
6.672590 88.347 -14.7747
6.720942 88.449 -15.7084
6.769645 88.549 -16.6420
6.818700 88.649 -17.5751
6.868111 88.747 -18.5076
6.917881 88.845 -19.4391
6.968010 88.942 -20.3698
7.018504 89.037 -21.2997
7.069362 89.132 -22.2290
7.120590 89.225 -23.1575
7.172189 89.317 -24.0845
7.224161 89.409 -25.0099
7.276511 89.499 -25.9332
7.329239 89.588 -26.8542
7.382350 89.676 -27.7731
7.435845 89.763 -28.6898
7.489729 89.848 -29.6042
7.544002 89.933 -30.5159
7.598669 90.017 -31.4244
7.653732 90.099 -32.3293
7.709194 90.181 -33.2307
7.765058 90.261 -34.1285
7.821327 90.341 -35.0227
7.878004 90.420 -35.9131
7.935091 90.497 -36.7996
7.992592 90.574 -37.6818
8.050510 90.650 -38.5595
8.108847 90.725 -39.4329
8.167607 90.800 -40.3019
8.226793 90.873 -41.1666
8.286408 90.946 -42.0270
8.346454 91.018 -42.8831
8.406936 91.090 -43.7349
8.467856 91.161 -44.5824
8.529218 91.232 -45.4258
8.591024 91.302 -46.2653
8.653278 91.372 -47.1010
8.715983 91.441 -47.9331
8.779143 91.509 -48.7617
8.842760 91.578 -49.5872
8.906839 91.646 -50.4096
8.971381 91.713 -51.2292
9.036392 91.781 -52.0464
9.101873 91.847 -52.8612
9.167829 91.914 -53.6740
9.234263 91.980 -54.4849
9.301178 92.046 -55.2942
9.368578 92.111 -56.1021
9.436467 92.176 -56.9088
9.504847 92.241 -57.7146
9.573723 92.305 -58.5196
9.643099 92.369 -59.3240
9.712976 92.432 -60.1278
9.783361 92.495 -60.9313
9.854255 92.558 -61.7344
9.925663 92.619 -62.5374
9.997588 92.680 -63.3403
10.070035 92.741 -64.1431
10.143007 92.801 -64.9458
10.216507 92.860 -65.7483
10.290540 92.919 -66.5507
10.365109 92.977 -67.3528
10.440219 93.034 -68.1548
10.515873 93.090 -68.9563
10.592076 93.145 -69.7572
10.668830 93.200 -70.5575
10.746141 93.254 -71.3569
10.824012 93.307 -72.1553
10.902447 93.359 -72.9525
10.981451 93.410 -73.7480
11.061027 93.460 -74.5419
11.141180 93.510 -75.3339
11.221913 93.558 -76.1235
11.303232 93.606 -76.9106
11.385140 93.652 -77.6949
11.467641 93.698 -78.4762
11.550741 93.743 -79.2542
11.634442 93.787 -80.0284
11.718750 93.831 -80.7990
11.803669 93.873 -81.5654
11.889203 93.915 -82.3277
11.975357 93.957 -83.0857
12.062136 93.997 -83.8392
12.149543 94.038 -84.5883
12.237583 94.077 -85.3330
12.326262 94.117 -86.0734
12.415583 94.156 -86.8094
12.505552 94.194 -87.5415
12.596172 94.233 -88.2698
12.687449 94.271 -88.9946
12.779387 94.309 -89.7161
12.871992 94.346 -90.4348
12.965268 94.384 -91.1508
13.059220 94.421 -91.8646
13.153852 94.458 -92.5764
13.249170 94.495 -93.2866
13.345179 94.531 -93.9952
13.441884 94.568 -94.7026
13.539289 94.603 -95.4086
13.637401 94.639 -96.1134
13.736223 94.673 -96.8168
13.835761 94.708 -97.5186
13.936021 94.741 -98.2187
14.037007 94.774 -98.9167
14.138725 94.807 -99.6123
14.241180 94.838 -100.3052
14.344377 94.870 -100.9949
14.448323 94.900 -101.6813
14.553021 94.930 -102.3641
14.658478 94.960 -103.0431
14.764700 94.989 -103.7182
14.871691 95.018 -104.3895
14.979457 95.046 -105.0570
15.088005 95.075 -105.7211
15.197339 95.103 -106.3821
15.307465 95.131 -107.0403
15.418389 95.159 -107.6964
15.530117 95.186 -108.3507
15.642655 95.214 -109.0038
15.756008 95.241 -109.6560
15.870182 95.268 -110.3077
15.985184 95.295 -110.9590
16.101019 95.321 -111.6099
16.217694 95.346 -112.2605
16.335214 95.371 -112.9103
16.453586 95.395 -113.5591
16.572815 95.419 -114.2062
16.692909 95.441 -114.8512
16.813872 95.463 -115.4934
16.935713 95.484 -116.1323
17.058436 95.505 -116.7675
17.182048 95.525 -117.3985
17.306556 95.544 -118.0254
17.431967 95.563 -118.6481
17.558286 95.582 -119.2670
17.685521 95.601 -119.8824
17.813677 95.620 -120.4952
17.942762 95.638 -121.1058
18.072783 95.657 -121.7153
18.203746 95.675 -122.3242
18.335658 95.693 -122.9332
18.468526 95.711 -123.5427
18.602356 95.729 -124.1528
18.737156 95.746 -124.7637
18.872934 95.762 -125.3749
19.009695 95.777 -125.9858
19.147447 95.792 -126.5958
19.286197 95.805 -127.2039
19.425953 95.818 -127.8093
19.566721 95.830 -128.4111
19.708510 95.841 -129.0086
19.851326 95.852 -129.6014
19.995177 95.862 -130.1893
20.140070 95.872 -130.7725
20.286013 95.882 -131.3513
20.433014 95.892 -131.9263
20.581080 95.902 -132.4983
20.730219 95.912 -133.0682
20.880439 95.922 -133.6369
21.031747 95.932 -134.2051
21.184152 95.942 -134.7732
21.337661 95.951 -135.3416
21.492282 95.961 -135.9103
21.648024 95.969 -136.4791
21.804895 95.978 -137.0475
21.962902 95.985 -137.6149
22.122054 95.992 -138.1807
22.282360 95.998 -138.7442
22.443827 96.004 -139.3050
22.606464 96.009 -139.8627
22.770280 96.014 -140.4173
22.935283 96.019 -140.9687
23.101481 96.023 -141.5172
23.268884 96.027 -142.0630
23.437500 96.031 -142.6067
23.607338 96.034 -143.1485
23.778406 96.038 -143.6888
23.950714 96.040 -144.2277
24.124271 96.043 -144.7651
24.299086 96.045 -145.3010
24.475167 96.046 -145.8350
24.652524 96.047 -146.3668
24.831166 96.048 -146.8959
25.011103 96.048 -147.4218
25.192344 96.047 -147.9442
25.374898 96.046 -148.4630
25.558775 96.045 -148.9783
25.743984 96.043 -149.4901
25.930536 96.042 -149.9989
26.118439 96.040 -150.5054
26.307704 96.038 -151.0100
26.498341 96.036 -151.5134
26.690359 96.035 -152.0164
26.883768 96.032 -152.5190
27.078579 96.030 -153.0215
27.274801 96.027 -153.5240
27.472446 96.023 -154.0261
27.671522 96.019 -154.5274
27.872042 96.015 -155.0274
28.074014 96.010 -155.5257
28.277450 96.004 -156.0219
28.482360 95.998 -156.5160
28.688755 95.991 -157.0079
28.896645 95.984 -157.4978
29.106042 95.977 -157.9859
29.316957 95.970 -158.4724
29.529400 95.962 -158.9575
29.743382 95.954 -159.4412
29.958915 95.945 -159.9232
30.176009 95.936 -160.4034
30.394677 95.926 -160.8813
30.614929 95.916 -161.3568
30.836778 95.906 -161.8295
31.060234 95.895 -162.2997
31.285309 95.884 -162.7676
31.512015 95.873 -163.2334
31.740364 95.862 -163.6976
31.970368 95.850 -164.1606
32.202039 95.839 -164.6228
32.435388 95.827 -165.0841
32.670428 95.814 -165.5445
32.907171 95.801 -166.0036
33.145630 95.788 -166.4611
33.385817 95.774 -166.9162
33.627745 95.759 -167.3687
33.871425 95.744 -167.8179
34.116871 95.729 -168.2637
34.364096 95.713 -168.7064
34.613113 95.698 -169.1461
34.863934 95.682 -169.5833
35.116572 95.665 -170.0186
35.371041 95.649 -170.4524
35.627354 95.632 -170.8848
35.885525 95.614 -171.3156
36.145566 95.596 -171.7443
36.407492 95.578 -172.1701
36.671316 95.559 -172.5925
36.937051 95.539 -173.0110
37.204712 95.519 -173.4255
37.474313 95.499 -173.8365
37.745867 95.479 -174.2447
38.019389 95.459 -174.6511
38.294893 95.439 -175.0564
38.572394 95.419 -175.4612
38.851905 95.399 -175.8657
39.133442 95.378 -176.2698
39.417019 95.357 -176.6729
39.702651 95.335 -177.0746
39.990353 95.313 -177.4749
40.280140 95.291 -177.8738
40.572026 95.269 -178.2718
40.866028 95.247 -178.6696
41.162160 95.224 -179.0680
41.460438 95.202 -179.4675
41.760877 95.179 -179.8683
42.063494 95.155 179.7301
42.368303 95.130 179.3287
42.675322 95.105 178.9288
42.984565 95.078 178.5319
43.296048 95.051 178.1390
43.609789 95.023 177.7510
43.925804 94.995 177.3680
44.244108 94.967 176.9897
44.564719 94.939 176.6154
44.887654 94.910 176.2443
45.212928 94.881 175.8756
45.540560 94.852 175.5090
45.870565 94.823 175.1442
46.202962 94.793 174.7814
46.537768 94.762 174.4212
46.875000 94.731 174.0643
47.214676 94.699 173.7114
47.556813 94.667 173.3628
47.901429 94.635 173.0186
48.248542 94.602 172.6778
48.598171 94.569 172.3395
48.950334 94.537 172.0026
49.305048 94.504 171.6662
49.662333 94.471 171.3299
50.022206 94.437 170.9940
50.384688 94.403 170.6588
50.749796 94.368 170.3252
51.117550 94.332 169.9937
51.487969 94.296 169.6649
51.861072 94.260 169.3393
52.236879 94.223 169.0173
52.615409 94.186 168.6992
52.996681 94.148 168.3851
53.380717 94.111 168.0746
53.767536 94.073 167.7673
54.157158 94.035 167.4628
54.549603 93.997 167.1608
54.944892 93.958 166.8613
55.343045 93.919 166.5644
55.744084 93.879 166.2704
56.148028 93.840 165.9793
56.554900 93.799 165.6912
56.964720 93.759 165.4061
57.377510 93.718 165.1238
57.793291 93.677 164.8442
58.212085 93.636 164.5673
58.633914 93.594 164.2926
59.058799 93.552 164.0201
59.486764 93.510 163.7499
59.917829 93.468 163.4822
60.352019 93.425 163.2177
60.789354 93.382 162.9572
61.229859 93.338 162.7014
61.673556 93.295 162.4508
62.120468 93.251 162.2053
62.570618 93.207 161.9648
63.024031 93.164 161.7285
63.480729 93.120 161.4955
63.940736 93.076 161.2643
64.404077 93.032 161.0336
64.870776 92.987 160.8036
65.340856 92.941 160.5758
65.814343 92.894 160.3525
66.291261 92.847 160.1358
66.771635 92.798 159.9258
67.255489 92.750 159.7216
67.742850 92.701 159.5212
68.233743 92.652 159.3239
68.728193 92.603 159.1293
69.226226 92.554 158.9380
69.727867 92.504 158.7500
70.233144 92.455 158.5652
70.742083 92.405 158.3837
71.254709 92.356 158.2055
71.771050 92.307 158.0309
72.291132 92.257 157.8603
72.814984 92.207 157.6937
73.342631 92.158 157.5315
73.874102 92.108 157.3738
74.409424 92.058 157.2211
74.948626 92.007 157.0734
75.491734 91.957 156.9307
76.038779 91.906 156.7927
76.589787 91.855 156.6591
77.144788 91.804 156.5292
77.703811 91.753 156.4027
78.266885 91.701 156.2792
78.834039 91.650 156.1584
79.405303 91.598 156.0403
79.980706 91.547 155.9252
80.560280 91.495 155.8142
81.144053 91.443 155.7086
81.732056 91.390 155.6086
82.324320 91.339 155.5143
82.920876 91.287 155.4246
83.521755 91.235 155.3397
84.126988 91.183 155.2599
84.736607 91.132 155.1855
85.350643 91.080 155.1163
85.969129 91.028 155.0519
86.592097 90.976 154.9922
87.219579 90.924 154.9371
87.851608 90.872 154.8864
88.488217 90.819 154.8399
89.129439 90.767 154.7977
89.775308 90.715 154.7598
90.425856 90.663 154.7258
