* Measurement data measured by REW V5.31.3
* Source: Headset (2- CX31993 HIFI AUDIO), MICROPHONE (Master Volume), R, volume: 0.400
* Format: 256k Log Swept Sine, 1 sweep at -11.9 dBFS with no timing reference
* Dated: 08 4, 25 6:17:11 PM
* REW Settings:
*  C-weighting compensation: Off
*  Target level: 75.0 dB
* Note: ; 
* Measurement: CrinEar Daybreak L
* Smoothing: 1/12 octave
* Frequency Step: 96 ppo
* Start Frequency: 0.36621094 Hz
*
* Freq(Hz) SPL(dB) Phase(degrees)
0.366211 45.101 -29.8656
0.368865 45.106 -29.9191
0.371538 45.115 -29.9988
0.374230 45.126 -30.0981
0.376942 45.138 -30.2115
0.379673 45.151 -30.3347
0.382424 45.164 -30.4650
0.385196 45.178 -30.6008
0.387987 45.192 -30.7410
0.390798 45.207 -30.8852
0.393630 45.221 -31.0330
0.396483 45.236 -31.1844
0.399356 45.250 -31.3393
0.402250 45.265 -31.4975
0.405165 45.280 -31.6593
0.408101 45.295 -31.8244
0.411058 45.310 -31.9930
0.414037 45.325 -32.1651
0.417037 45.340 -32.3407
0.420059 45.356 -32.5198
0.423103 45.371 -32.7024
0.426169 45.387 -32.8885
0.429257 45.403 -33.0782
0.432368 45.419 -33.2714
0.435501 45.435 -33.4681
0.438656 45.451 -33.6685
0.441835 45.467 -33.8724
0.445037 45.483 -34.0799
0.448262 45.500 -34.2910
0.451510 45.516 -34.5056
0.454782 45.533 -34.7239
0.458077 45.550 -34.9458
0.461397 45.567 -35.1714
0.464740 45.584 -35.4005
0.468108 45.601 -35.6333
0.471500 45.619 -35.8697
0.474917 45.636 -36.1097
0.478358 45.654 -36.3534
0.481825 45.671 -36.6007
0.485316 45.689 -36.8516
0.488833 45.707 -37.1062
0.492375 45.725 -37.3644
0.495943 45.743 -37.6263
0.499537 45.762 -37.8918
0.503157 45.780 -38.1610
0.506803 45.799 -38.4338
0.510475 45.818 -38.7103
0.514175 45.836 -38.9904
0.517900 45.855 -39.2742
0.521653 45.875 -39.5617
0.525434 45.894 -39.8528
0.529241 45.913 -40.1476
0.533076 45.933 -40.4461
0.536939 45.953 -40.7483
0.540830 45.973 -41.0541
0.544749 45.993 -41.3637
0.548696 46.013 -41.6770
0.552673 46.033 -41.9940
0.556677 46.053 -42.3147
0.560711 46.074 -42.6392
0.564774 46.095 -42.9675
0.568867 46.116 -43.2996
0.572989 46.137 -43.6354
0.577141 46.158 -43.9752
0.581324 46.179 -44.3187
0.585536 46.201 -44.6662
0.589779 46.222 -45.0176
0.594053 46.244 -45.3730
0.598358 46.266 -45.7324
0.602694 46.288 -46.0958
0.607061 46.311 -46.4633
0.611460 46.333 -46.8349
0.615891 46.356 -47.2108
0.620354 46.379 -47.5909
0.624849 46.401 -47.9753
0.629377 46.425 -48.3641
0.633938 46.448 -48.7573
0.638532 46.471 -49.1551
0.643159 46.495 -49.5576
0.647819 46.519 -49.9647
0.652514 46.543 -50.3767
0.657242 46.567 -50.7936
0.662005 46.591 -51.2156
0.666802 46.616 -51.6427
0.671634 46.640 -52.0751
0.676501 46.665 -52.5129
0.681403 46.690 -52.9563
0.686341 46.715 -53.4055
0.691314 46.741 -53.8605
0.696324 46.767 -54.3217
0.701370 46.792 -54.7891
0.706452 46.818 -55.2630
0.711571 46.845 -55.7437
0.716728 46.871 -56.2313
0.721921 46.899 -56.7262
0.727153 46.926 -57.2286
0.732422 46.955 -57.7389
0.737729 46.984 -58.2572
0.743075 47.013 -58.7836
0.748460 47.043 -59.3183
0.753883 47.074 -59.8612
0.759346 47.105 -60.4122
0.764849 47.136 -60.9711
0.770391 47.168 -61.5377
0.775974 47.199 -62.1118
0.781597 47.231 -62.6933
0.787261 47.263 -63.2820
0.792966 47.296 -63.8775
0.798712 47.328 -64.4798
0.804500 47.361 -65.0887
0.810329 47.395 -65.7039
0.816201 47.428 -66.3253
0.822116 47.462 -66.9528
0.828073 47.496 -67.5861
0.834074 47.531 -68.2251
0.840118 47.565 -68.8697
0.846206 47.600 -69.5198
0.852338 47.636 -70.1753
0.858514 47.672 -70.8361
0.864735 47.708 -71.5020
0.871001 47.745 -72.1731
0.877313 47.782 -72.8494
0.883670 47.820 -73.5307
0.890074 47.858 -74.2172
0.896524 47.896 -74.9088
0.903020 47.936 -75.6057
0.909564 47.975 -76.3078
0.916155 48.015 -77.0153
0.922794 48.056 -77.7282
0.929481 48.098 -78.4469
0.936216 48.140 -79.1713
0.943000 48.182 -79.9018
0.949834 48.226 -80.6386
0.956717 48.270 -81.3819
0.963649 48.314 -82.1321
0.970632 48.360 -82.8894
0.977666 48.406 -83.6542
0.984750 48.453 -84.4270
0.991886 48.501 -85.2081
0.999074 48.550 -85.9980
1.006314 48.600 -86.7973
1.013606 48.650 -87.6064
1.020951 48.702 -88.4260
1.028349 48.755 -89.2566
1.035801 48.808 -90.0989
1.043307 48.863 -90.9537
1.050867 48.919 -91.8216
1.058482 48.976 -92.7035
1.066152 49.034 -93.6000
1.073878 49.093 -94.5119
1.081660 49.154 -95.4399
1.089498 49.216 -96.3845
1.097393 49.279 -97.3457
1.105345 49.343 -98.3237
1.113355 49.408 -99.3178
1.121423 49.474 -100.3274
1.129549 49.542 -101.3517
1.137734 49.610 -102.3900
1.145979 49.680 -103.4412
1.154283 49.751 -104.5048
1.162647 49.822 -105.5798
1.171072 49.895 -106.6654
1.179558 49.969 -107.7611
1.188106 50.045 -108.8662
1.196715 50.121 -109.9800
1.205387 50.199 -111.1021
1.214122 50.278 -112.2317
1.222920 50.358 -113.3686
1.231782 50.439 -114.5122
1.240708 50.522 -115.6623
1.249699 50.607 -116.8185
1.258754 50.692 -117.9805
1.267876 50.779 -119.1482
1.277063 50.868 -120.3215
1.286318 50.958 -121.5003
1.295639 51.050 -122.6845
1.305027 51.143 -123.8744
1.314484 51.238 -125.0698
1.324009 51.335 -126.2712
1.333604 51.433 -127.4786
1.343268 51.533 -128.6924
1.353002 51.635 -129.9129
1.362806 51.738 -131.1406
1.372681 51.844 -132.3758
1.382628 51.951 -133.6191
1.392647 52.061 -134.8709
1.402739 52.172 -136.1317
1.412904 52.285 -137.4020
1.423142 52.401 -138.6820
1.433455 52.519 -139.9719
1.443843 52.639 -141.2712
1.454305 52.762 -142.5789
1.464844 52.887 -143.8935
1.475459 53.015 -145.2124
1.486150 53.145 -146.5331
1.496920 53.279 -147.8528
1.507767 53.416 -149.1694
1.518693 53.555 -150.4811
1.529698 53.698 -151.7868
1.540783 53.843 -153.0857
1.551948 53.992 -154.3772
1.563194 54.143 -155.6611
1.574521 54.297 -156.9375
1.585931 54.453 -158.2066
1.597423 54.612 -159.4689
1.608999 54.774 -160.7248
1.620658 54.938 -161.9751
1.632402 55.104 -163.2207
1.644232 55.272 -164.4623
1.656146 55.442 -165.7011
1.668147 55.615 -166.9381
1.680235 55.789 -168.1745
1.692411 55.964 -169.4115
1.704675 56.142 -170.6503
1.717028 56.321 -171.8923
1.729470 56.501 -173.1386
1.742003 56.682 -174.3906
1.754626 56.864 -175.6495
1.767341 57.047 -176.9162
1.780147 57.231 -178.1914
1.793047 57.415 -179.4755
1.806040 57.600 179.2319
1.819128 57.787 177.9323
1.832310 57.974 176.6281
1.845587 58.163 175.3224
1.858961 58.353 174.0190
1.872432 58.545 172.7211
1.886001 58.739 171.4311
1.899667 58.935 170.1508
1.913433 59.132 168.8814
1.927299 59.332 167.6235
1.941265 59.533 166.3770
1.955332 59.737 165.1419
1.969501 59.941 163.9177
1.983773 60.147 162.7037
1.998148 60.355 161.4990
2.012627 60.563 160.3027
2.027212 60.773 159.1136
2.041902 60.983 157.9305
2.056698 61.194 156.7522
2.071602 61.406 155.5772
2.086614 61.619 154.4042
2.101734 61.831 153.2319
2.116964 62.044 152.0590
2.132304 62.257 150.8842
2.147756 62.469 149.7070
2.163320 62.682 148.5269
2.178996 62.894 147.3444
2.194786 63.106 146.1607
2.210690 63.318 144.9779
2.226710 63.530 143.7985
2.242845 63.742 142.6247
2.259098 63.955 141.4583
2.275468 64.167 140.3004
2.291957 64.380 139.1515
2.308566 64.593 138.0117
2.325295 64.807 136.8808
2.342145 65.021 135.7581
2.359117 65.234 134.6430
2.376212 65.448 133.5344
2.393431 65.662 132.4312
2.410775 65.876 131.3323
2.428244 66.090 130.2364
2.445840 66.304 129.1422
2.463564 66.517 128.0483
2.481416 66.730 126.9536
2.499397 66.943 125.8569
2.517509 67.156 124.7575
2.535752 67.368 123.6551
2.554127 67.580 122.5498
2.572635 67.792 121.4428
2.591277 68.003 120.3356
2.610055 68.213 119.2298
2.628968 68.423 118.1268
2.648019 68.633 117.0277
2.667208 68.842 115.9332
2.686535 69.050 114.8435
2.706003 69.258 113.7587
2.725612 69.466 112.6783
2.745363 69.673 111.6019
2.765257 69.879 110.5288
2.785295 70.085 109.4583
2.805478 70.291 108.3893
2.825808 70.496 107.3208
2.846285 70.700 106.2518
2.866910 70.904 105.1815
2.887685 71.107 104.1089
2.908611 71.310 103.0336
2.929688 71.512 101.9555
2.950917 71.714 100.8752
2.972301 71.915 99.7935
2.993839 72.114 98.7113
3.015534 72.313 97.6297
3.037386 72.511 96.5494
3.059396 72.709 95.4711
3.081565 72.905 94.3951
3.103896 73.101 93.3215
3.126388 73.295 92.2502
3.149043 73.489 91.1810
3.171862 73.682 90.1133
3.194847 73.875 89.0465
3.217998 74.067 87.9800
3.241317 74.258 86.9128
3.264805 74.448 85.8442
3.288463 74.637 84.7736
3.312293 74.826 83.7006
3.336295 75.013 82.6252
3.360471 75.200 81.5480
3.384822 75.385 80.4695
3.409350 75.569 79.3905
3.434056 75.752 78.3119
3.458940 75.934 77.2342
3.484005 76.116 76.1581
3.509252 76.296 75.0836
3.534681 76.475 74.0110
3.560295 76.653 72.9401
3.586094 76.830 71.8704
3.612081 77.007 70.8013
3.638255 77.182 69.7320
3.664620 77.357 68.6618
3.691175 77.530 67.5898
3.717923 77.702 66.5160
3.744864 77.873 65.4403
3.772001 78.043 64.3634
3.799335 78.211 63.2862
3.826866 78.379 62.2094
3.854597 78.545 61.1339
3.882529 78.710 60.0603
3.910664 78.874 58.9890
3.939002 79.037 57.9201
3.967546 79.199 56.8534
3.996296 79.360 55.7882
4.025255 79.520 54.7239
4.054423 79.678 53.6593
4.083804 79.836 52.5939
4.113396 79.992 51.5276
4.143204 80.147 50.4605
4.173227 80.300 49.3935
4.203468 80.453 48.3274
4.233928 80.604 47.2632
4.264609 80.754 46.2015
4.295512 80.903 45.1429
4.326639 81.051 44.0875
4.357992 81.198 43.0352
4.389572 81.344 41.9851
4.421380 81.489 40.9364
4.453419 81.632 39.8884
4.485691 81.774 38.8408
4.518196 81.916 37.7936
4.550936 82.055 36.7475
4.583914 82.194 35.7033
4.617131 82.332 34.6618
4.650589 82.468 33.6237
4.684289 82.604 32.5893
4.718233 82.739 31.5588
4.752424 82.872 30.5317
4.786862 83.005 29.5074
4.821549 83.136 28.4850
4.856488 83.267 27.4642
4.891680 83.396 26.4452
4.927127 83.524 25.4281
4.962831 83.652 24.4137
4.998794 83.778 23.4025
5.035017 83.903 22.3951
5.071503 84.028 21.3917
5.108253 84.152 20.3922
5.145270 84.275 19.3962
5.182555 84.397 18.4030
5.220110 84.518 17.4122
5.257937 84.638 16.4236
5.296038 84.758 15.4376
5.334415 84.876 14.4545
5.373071 84.994 13.4745
5.412006 85.111 12.4980
5.451224 85.227 11.5251
5.490725 85.343 10.5557
5.530514 85.458 9.5892
5.570590 85.572 8.6254
5.610957 85.686 7.6639
5.651616 85.799 6.7048
5.692570 85.911 5.7480
5.733821 86.023 4.7939
5.775370 86.133 3.8427
5.817221 86.244 2.8942
5.859375 86.353 1.9482
5.901834 86.463 1.0046
5.944602 86.571 0.0630
5.987679 86.679 -0.8768
6.031068 86.786 -1.8148
6.074771 86.893 -2.7510
6.118792 86.999 -3.6853
6.163131 87.105 -4.6176
6.207792 87.210 -5.5480
6.252776 87.314 -6.4768
6.298086 87.418 -7.4043
6.343725 87.521 -8.3306
6.389694 87.624 -9.2557
6.435996 87.725 -10.1797
6.482634 87.827 -11.1022
6.529610 87.928 -12.0234
6.576926 88.028 -12.9434
6.624585 88.127 -13.8623
6.672590 88.226 -14.7803
6.720942 88.324 -15.6976
6.769645 88.421 -16.6141
6.818700 88.518 -17.5295
6.868111 88.614 -18.4438
6.917881 88.710 -19.3569
6.968010 88.804 -20.2690
7.018504 88.898 -21.1802
7.069362 88.991 -22.0905
7.120590 89.084 -23.0000
7.172189 89.176 -23.9084
7.224161 89.266 -24.8156
7.276511 89.357 -25.7214
7.329239 89.446 -26.6257
7.382350 89.535 -27.5289
7.435845 89.622 -28.4308
7.489729 89.710 -29.3315
7.544002 89.796 -30.2308
7.598669 89.881 -31.1284
7.653732 89.966 -32.0242
7.709194 90.050 -32.9182
7.765058 90.133 -33.8104
7.821327 90.215 -34.7010
7.878004 90.297 -35.5897
7.935091 90.377 -36.4764
7.992592 90.457 -37.3610
8.050510 90.536 -38.2433
8.108847 90.615 -39.1233
8.167607 90.692 -40.0011
8.226793 90.769 -40.8766
8.286408 90.845 -41.7498
8.346454 90.920 -42.6205
8.406936 90.995 -43.4885
8.467856 91.068 -44.3538
8.529218 91.141 -45.2166
8.591024 91.214 -46.0767
8.653278 91.285 -46.9340
8.715983 91.356 -47.7886
8.779143 91.426 -48.6401
8.842760 91.496 -49.4888
8.906839 91.565 -50.3345
8.971381 91.633 -51.1774
9.036392 91.700 -52.0173
9.101873 91.767 -52.8542
9.167829 91.833 -53.6880
9.234263 91.899 -54.5189
9.301178 91.964 -55.3467
9.368578 92.029 -56.1716
9.436467 92.093 -56.9937
9.504847 92.156 -57.8127
9.573723 92.219 -58.6290
9.643099 92.281 -59.4425
9.712976 92.343 -60.2534
9.783361 92.404 -61.0616
9.854255 92.465 -61.8673
9.925663 92.525 -62.6707
9.997588 92.585 -63.4717
10.070035 92.644 -64.2706
10.143007 92.703 -65.0674
10.216507 92.762 -65.8624
10.290540 92.820 -66.6555
10.365109 92.877 -67.4469
10.440219 92.934 -68.2367
10.515873 92.990 -69.0250
10.592076 93.046 -69.8119
10.668830 93.101 -70.5973
10.746141 93.155 -71.3813
10.824012 93.209 -72.1641
10.902447 93.262 -72.9453
10.981451 93.315 -73.7251
11.061027 93.367 -74.5034
11.141180 93.418 -75.2800
11.221913 93.468 -76.0549
11.303232 93.517 -76.8278
11.385140 93.566 -77.5986
11.467641 93.614 -78.3672
11.550741 93.661 -79.1334
11.634442 93.708 -79.8969
11.718750 93.754 -80.6575
11.803669 93.798 -81.4150
11.889203 93.843 -82.1694
11.975357 93.886 -82.9205
12.062136 93.929 -83.6682
12.149543 93.971 -84.4124
12.237583 94.013 -85.1530
12.326262 94.054 -85.8900
12.415583 94.094 -86.6235
12.505552 94.134 -87.3536
12.596172 94.174 -88.0803
12.687449 94.213 -88.8038
12.779387 94.252 -89.5244
12.871992 94.290 -90.2420
12.965268 94.328 -90.9570
13.059220 94.366 -91.6697
13.153852 94.403 -92.3801
13.249170 94.440 -93.0884
13.345179 94.476 -93.7949
13.441884 94.512 -94.4996
13.539289 94.548 -95.2028
13.637401 94.583 -95.9043
13.736223 94.618 -96.6042
13.835761 94.652 -97.3027
13.936021 94.685 -97.9995
14.037007 94.718 -98.6946
14.138725 94.751 -99.3879
14.241180 94.783 -100.0793
14.344377 94.814 -100.7687
14.448323 94.845 -101.4558
14.553021 94.875 -102.1406
14.658478 94.905 -102.8229
14.764700 94.934 -103.5027
14.871691 94.963 -104.1798
14.979457 94.991 -104.8544
15.088005 95.019 -105.5263
15.197339 95.046 -106.1956
15.307465 95.073 -106.8624
15.418389 95.100 -107.5267
15.530117 95.126 -108.1886
15.642655 95.152 -108.8483
15.756008 95.178 -109.5057
15.870182 95.203 -110.1612
15.985184 95.228 -110.8146
16.101019 95.252 -111.4661
16.217694 95.276 -112.1157
16.335214 95.300 -112.7633
16.453586 95.323 -113.4091
16.572815 95.346 -114.0530
16.692909 95.368 -114.6949
16.813872 95.390 -115.3348
16.935713 95.412 -115.9727
17.058436 95.433 -116.6083
17.182048 95.454 -117.2418
17.306556 95.474 -117.8732
17.431967 95.494 -118.5022
17.558286 95.513 -119.1290
17.685521 95.532 -119.7535
17.813677 95.551 -120.3757
17.942762 95.569 -120.9956
18.072783 95.587 -121.6132
18.203746 95.604 -122.2285
18.335658 95.621 -122.8414
18.468526 95.638 -123.4518
18.602356 95.654 -124.0599
18.737156 95.669 -124.6655
18.872934 95.685 -125.2686
19.009695 95.700 -125.8693
19.147447 95.714 -126.4673
19.286197 95.729 -127.0630
19.425953 95.743 -127.6564
19.566721 95.756 -128.2476
19.708510 95.770 -128.8366
19.851326 95.783 -129.4237
19.995177 95.795 -130.0092
20.140070 95.808 -130.5931
20.286013 95.820 -131.1756
20.433014 95.832 -131.7570
20.581080 95.843 -132.3372
20.730219 95.854 -132.9162
20.880439 95.864 -133.4941
21.031747 95.874 -134.0706
21.184152 95.883 -134.6457
21.337661 95.892 -135.2190
21.492282 95.900 -135.7902
21.648024 95.907 -136.3589
21.804895 95.914 -136.9250
21.962902 95.921 -137.4881
22.122054 95.927 -138.0480
22.282360 95.932 -138.6046
22.443827 95.937 -139.1580
22.606464 95.942 -139.7081
22.770280 95.947 -140.2554
22.935283 95.952 -140.8003
23.101481 95.956 -141.3430
23.268884 95.960 -141.8843
23.437500 95.964 -142.4246
23.607338 95.968 -142.9643
23.778406 95.972 -143.5038
23.950714 95.975 -144.0432
24.124271 95.978 -144.5826
24.299086 95.980 -145.1216
24.475167 95.981 -145.6598
24.652524 95.982 -146.1964
24.831166 95.982 -146.7307
25.011103 95.981 -147.2618
25.192344 95.979 -147.7891
25.374898 95.977 -148.3121
25.558775 95.975 -148.8304
25.743984 95.972 -149.3441
25.930536 95.970 -149.8538
26.118439 95.967 -150.3599
26.307704 95.964 -150.8635
26.498341 95.962 -151.3654
26.690359 95.959 -151.8665
26.883768 95.956 -152.3675
27.078579 95.954 -152.8688
27.274801 95.950 -153.3704
27.472446 95.947 -153.8721
27.671522 95.942 -154.3736
27.872042 95.938 -154.8743
28.074014 95.932 -155.3737
28.277450 95.926 -155.8713
28.482360 95.920 -156.3668
28.688755 95.912 -156.8597
28.896645 95.905 -157.3499
29.106042 95.897 -157.8371
29.316957 95.888 -158.3211
29.529400 95.879 -158.8016
29.743382 95.870 -159.2785
29.958915 95.860 -159.7516
30.176009 95.851 -160.2211
30.394677 95.841 -160.6874
30.614929 95.832 -161.1512
30.836778 95.822 -161.6133
31.060234 95.812 -162.0746
31.285309 95.803 -162.5355
31.512015 95.793 -162.9963
31.740364 95.783 -163.4566
31.970368 95.772 -163.9158
32.202039 95.760 -164.3729
32.435388 95.749 -164.8270
32.670428 95.736 -165.2776
32.907171 95.724 -165.7246
33.145630 95.712 -166.1684
33.385817 95.699 -166.6099
33.627745 95.687 -167.0500
33.871425 95.674 -167.4896
34.116871 95.661 -167.9289
34.364096 95.648 -168.3677
34.613113 95.634 -168.8055
34.863934 95.620 -169.2415
35.116572 95.605 -169.6750
35.371041 95.590 -170.1061
35.627354 95.574 -170.5349
35.885525 95.559 -170.9620
36.145566 95.543 -171.3882
36.407492 95.527 -171.8143
36.671316 95.511 -172.2405
36.937051 95.494 -172.6668
37.204712 95.476 -173.0932
37.474313 95.459 -173.5195
37.745867 95.440 -173.9457
38.019389 95.421 -174.3721
38.294893 95.402 -174.7988
38.572394 95.382 -175.2257
38.851905 95.361 -175.6526
39.133442 95.340 -176.0786
39.417019 95.317 -176.5025
39.702651 95.293 -176.9232
39.990353 95.269 -177.3397
40.280140 95.245 -177.7515
40.572026 95.220 -178.1584
40.866028 95.194 -178.5605
41.162160 95.168 -178.9577
41.460438 95.143 -179.3499
41.760877 95.117 -179.7374
42.063494 95.092 179.8792
42.368303 95.067 179.4983
42.675322 95.042 179.1180
42.984565 95.017 178.7365
43.296048 94.993 178.3525
43.609789 94.967 177.9668
43.925804 94.941 177.5814
44.244108 94.913 177.1992
44.564719 94.885 176.8228
44.887654 94.856 176.4532
45.212928 94.827 176.0892
45.540560 94.799 175.7282
45.870565 94.770 175.3672
46.202962 94.742 175.0045
46.537768 94.712 174.6404
46.875000 94.681 174.2775
47.214676 94.650 173.9185
47.556813 94.617 173.5658
47.901429 94.584 173.2197
48.248542 94.551 172.8790
48.598171 94.518 172.5417
48.950334 94.485 172.2061
49.305048 94.452 171.8712
49.662333 94.419 171.5371
50.022206 94.385 171.2040
50.384688 94.351 170.8718
50.749796 94.317 170.5405
51.117550 94.282 170.2100
51.487969 94.246 169.8810
51.861072 94.210 169.5547
52.236879 94.173 169.2323
52.615409 94.135 168.9144
52.996681 94.097 168.6010
53.380717 94.059 168.2913
53.767536 94.021 167.9847
54.157158 93.983 167.6810
54.549603 93.944 167.3806
54.944892 93.905 167.0834
55.343045 93.866 166.7894
55.744084 93.827 166.4981
56.148028 93.787 166.2091
56.554900 93.748 165.9225
56.964720 93.707 165.6386
57.377510 93.667 165.3584
57.793291 93.626 165.0822
58.212085 93.584 164.8098
58.633914 93.543 164.5409
59.058799 93.501 164.2747
59.486764 93.459 164.0107
59.917829 93.416 163.7489
60.352019 93.373 163.4895
60.789354 93.329 163.2330
61.229859 93.285 162.9796
61.673556 93.241 162.7296
62.120468 93.195 162.4827
62.570618 93.150 162.2383
63.024031 93.104 161.9964
63.480729 93.057 161.7578
63.940736 93.010 161.5242
64.404077 92.963 161.2972
64.870776 92.915 161.0766
65.340856 92.869 160.8602
65.814343 92.823 160.6448
66.291261 92.777 160.4283
66.771635 92.732 160.2111
67.255489 92.686 159.9944
67.742850 92.639 159.7803
68.233743 92.592 159.5700
68.728193 92.545 159.3644
69.226226 92.497 159.1642
69.727867 92.449 158.9702
70.233144 92.401 158.7826
70.742083 92.353 158.6010
71.254709 92.304 158.4250
71.771050 92.255 158.2539
72.291132 92.205 158.0874
72.814984 92.155 157.9250
73.342631 92.105 157.7667
73.874102 92.055 157.6119
74.409424 92.004 157.4603
74.948626 91.953 157.3116
75.491734 91.902 157.1662
76.038779 91.850 157.0245
76.589787 91.799 156.8870
77.144788 91.747 156.7538
77.703811 91.696 156.6245
78.266885 91.645 156.4984
78.834039 91.594 156.3745
79.405303 91.543 156.2523
79.980706 91.492 156.1321
80.560280 91.440 156.0159
81.144053 91.388 155.9061
81.732056 91.335 155.8046
82.324320 91.282 155.7112
82.920876 91.229 155.6254
83.521755 91.176 155.5469
84.126988 91.124 155.4749
84.736607 91.071 155.4086
85.350643 91.019 155.3467
85.969129 90.966 155.2884
86.592097 90.914 155.2336
87.219579 90.862 155.1822
87.851608 90.810 155.1337
88.488217 90.758 155.0876
89.129439 90.707 155.0436
89.775308 90.655 155.0017
90.425856 90.603 154.9624
