* Measurement data measured by REW V5.31.3
* Source: Headset (2- CX31993 HIFI AUDIO), MICROPHONE (Master Volume), R, volume: 0.400
* Format: 256k Log Swept Sine, 1 sweep at -11.9 dBFS with no timing reference
* Dated: 08 4, 25 6:16:45 PM
* REW Settings:
*  C-weighting compensation: Off
*  Target level: 75.0 dB
* Note: ; 
* Measurement: CrinEar Daybreak R
* Smoothing: 1/12 octave
* Frequency Step: 96 ppo
* Start Frequency: 0.36621094 Hz
*
* Freq(Hz) SPL(dB) Phase(degrees)
0.366211 44.596 -36.0542
0.368865 44.598 -36.1160
0.371538 44.602 -36.2083
0.374230 44.608 -36.3236
0.376942 44.613 -36.4555
0.379673 44.620 -36.5992
0.382424 44.626 -36.7517
0.385196 44.633 -36.9111
0.387987 44.640 -37.0762
0.390798 44.647 -37.2465
0.393630 44.654 -37.4216
0.396483 44.661 -37.6015
0.399356 44.668 -37.7861
0.402250 44.675 -37.9754
0.405165 44.682 -38.1693
0.408101 44.689 -38.3679
0.411058 44.696 -38.5713
0.414037 44.704 -38.7795
0.417037 44.711 -38.9925
0.420059 44.719 -39.2104
0.423103 44.726 -39.4331
0.426169 44.734 -39.6608
0.429257 44.741 -39.8934
0.432368 44.749 -40.1310
0.435501 44.757 -40.3736
0.438656 44.764 -40.6213
0.441835 44.772 -40.8741
0.445037 44.780 -41.1319
0.448262 44.788 -41.3949
0.451510 44.796 -41.6631
0.454782 44.804 -41.9365
0.458077 44.812 -42.2151
0.461397 44.820 -42.4989
0.464740 44.828 -42.7880
0.468108 44.837 -43.0823
0.471500 44.845 -43.3820
0.474917 44.853 -43.6870
0.478358 44.862 -43.9974
0.481825 44.870 -44.3131
0.485316 44.879 -44.6342
0.488833 44.888 -44.9607
0.492375 44.896 -45.2926
0.495943 44.905 -45.6299
0.499537 44.914 -45.9727
0.503157 44.923 -46.3209
0.506803 44.932 -46.6746
0.510475 44.941 -47.0337
0.514175 44.950 -47.3984
0.517900 44.959 -47.7686
0.521653 44.968 -48.1442
0.525434 44.978 -48.5254
0.529241 44.987 -48.9121
0.533076 44.997 -49.3044
0.536939 45.006 -49.7022
0.540830 45.016 -50.1056
0.544749 45.025 -50.5145
0.548696 45.035 -50.9291
0.552673 45.045 -51.3492
0.556677 45.055 -51.7750
0.560711 45.065 -52.2063
0.564774 45.075 -52.6433
0.568867 45.085 -53.0860
0.572989 45.095 -53.5343
0.577141 45.105 -53.9883
0.581324 45.115 -54.4480
0.585536 45.126 -54.9134
0.589779 45.136 -55.3846
0.594053 45.147 -55.8616
0.598358 45.157 -56.3444
0.602694 45.168 -56.8330
0.607061 45.179 -57.3275
0.611460 45.189 -57.8280
0.615891 45.200 -58.3343
0.620354 45.211 -58.8468
0.624849 45.222 -59.3652
0.629377 45.234 -59.8898
0.633938 45.245 -60.4206
0.638532 45.256 -60.9576
0.643159 45.267 -61.5009
0.647819 45.279 -62.0507
0.652514 45.290 -62.6070
0.657242 45.302 -63.1698
0.662005 45.314 -63.7393
0.666802 45.326 -64.3157
0.671634 45.337 -64.8989
0.676501 45.349 -65.4893
0.681403 45.362 -66.0868
0.686341 45.374 -66.6916
0.691314 45.386 -67.3040
0.696324 45.399 -67.9240
0.701370 45.411 -68.5519
0.706452 45.424 -69.1879
0.711571 45.438 -69.8322
0.716728 45.453 -70.4852
0.721921 45.468 -71.1471
0.727153 45.486 -71.8182
0.732422 45.507 -72.4989
0.737729 45.530 -73.1894
0.743075 45.555 -73.8899
0.748460 45.583 -74.6004
0.753883 45.613 -75.3209
0.759346 45.644 -76.0512
0.764849 45.676 -76.7910
0.770391 45.709 -77.5400
0.775974 45.743 -78.2980
0.781597 45.778 -79.0645
0.787261 45.814 -79.8394
0.792966 45.850 -80.6222
0.798712 45.887 -81.4127
0.804500 45.926 -82.2104
0.810329 45.965 -83.0151
0.816201 46.005 -83.8265
0.822116 46.045 -84.6442
0.828073 46.087 -85.4680
0.834074 46.129 -86.2976
0.840118 46.173 -87.1326
0.846206 46.217 -87.9729
0.852338 46.262 -88.8181
0.858514 46.309 -89.6681
0.864735 46.356 -90.5226
0.871001 46.404 -91.3814
0.877313 46.453 -92.2445
0.883670 46.503 -93.1115
0.890074 46.554 -93.9825
0.896524 46.606 -94.8572
0.903020 46.660 -95.7357
0.909564 46.714 -96.6178
0.916155 46.769 -97.5035
0.922794 46.826 -98.3928
0.929481 46.883 -99.2858
0.936216 46.942 -100.1825
0.943000 47.001 -101.0829
0.949834 47.062 -101.9873
0.956717 47.124 -102.8956
0.963649 47.188 -103.8081
0.970632 47.252 -104.7249
0.977666 47.318 -105.6463
0.984750 47.385 -106.5725
0.991886 47.453 -107.5037
0.999074 47.522 -108.4404
1.006314 47.593 -109.3826
1.013606 47.665 -110.3310
1.020951 47.738 -111.2857
1.028349 47.813 -112.2471
1.035801 47.888 -113.2158
1.043307 47.966 -114.1920
1.050867 48.044 -115.1763
1.058482 48.125 -116.1689
1.066152 48.206 -117.1703
1.073878 48.289 -118.1806
1.081660 48.374 -119.1998
1.089498 48.460 -120.2276
1.097393 48.548 -121.2633
1.105345 48.639 -122.3059
1.113355 48.731 -123.3538
1.121423 48.825 -124.4058
1.129549 48.922 -125.4606
1.137734 49.020 -126.5171
1.145979 49.121 -127.5744
1.154283 49.225 -128.6318
1.162647 49.331 -129.6886
1.171072 49.438 -130.7444
1.179558 49.549 -131.7986
1.188106 49.661 -132.8508
1.196715 49.776 -133.9009
1.205387 49.892 -134.9485
1.214122 50.011 -135.9934
1.222920 50.132 -137.0355
1.231782 50.255 -138.0746
1.240708 50.380 -139.1108
1.249699 50.506 -140.1440
1.258754 50.635 -141.1742
1.267876 50.765 -142.2016
1.277063 50.897 -143.2263
1.286318 51.031 -144.2484
1.295639 51.166 -145.2681
1.305027 51.303 -146.2858
1.314484 51.442 -147.3016
1.324009 51.581 -148.3158
1.333604 51.723 -149.3289
1.343268 51.865 -150.3410
1.353002 52.008 -151.3526
1.362806 52.153 -152.3641
1.372681 52.298 -153.3759
1.382628 52.444 -154.3883
1.392647 52.591 -155.4018
1.402739 52.739 -156.4166
1.412904 52.887 -157.4330
1.423142 53.036 -158.4511
1.433455 53.185 -159.4705
1.443843 53.335 -160.4908
1.454305 53.485 -161.5107
1.464844 53.636 -162.5284
1.475459 53.788 -163.5416
1.486150 53.942 -164.5482
1.496920 54.096 -165.5464
1.507767 54.253 -166.5349
1.518693 54.411 -167.5132
1.529698 54.570 -168.4812
1.540783 54.731 -169.4392
1.551948 54.894 -170.3877
1.563194 55.058 -171.3273
1.574521 55.224 -172.2590
1.585931 55.391 -173.1834
1.597423 55.559 -174.1017
1.608999 55.729 -175.0148
1.620658 55.900 -175.9236
1.632402 56.073 -176.8293
1.644232 56.246 -177.7329
1.656146 56.421 -178.6355
1.668147 56.596 -179.5381
1.680235 56.773 179.5581
1.692411 56.950 178.6522
1.704675 57.128 177.7429
1.717028 57.306 176.8294
1.729470 57.485 175.9105
1.742003 57.665 174.9853
1.754626 57.845 174.0529
1.767341 58.025 173.1126
1.780147 58.206 172.1640
1.793047 58.386 171.2070
1.806040 58.567 170.2421
1.819128 58.748 169.2705
1.832310 58.929 168.2944
1.845587 59.111 167.3164
1.858961 59.293 166.3392
1.872432 59.475 165.3649
1.886001 59.658 164.3952
1.899667 59.842 163.4310
1.913433 60.026 162.4726
1.927299 60.210 161.5201
1.941265 60.395 160.5732
1.955332 60.581 159.6313
1.969501 60.767 158.6940
1.983773 60.954 157.7603
1.998148 61.141 156.8297
2.012627 61.328 155.9010
2.027212 61.516 154.9735
2.041902 61.704 154.0462
2.056698 61.893 153.1181
2.071602 62.082 152.1882
2.086614 62.271 151.2554
2.101734 62.460 150.3188
2.116964 62.650 149.3776
2.132304 62.840 148.4309
2.147756 63.030 147.4783
2.163320 63.220 146.5197
2.178996 63.410 145.5558
2.194786 63.600 144.5876
2.210690 63.791 143.6169
2.226710 63.981 142.6459
2.242845 64.171 141.6764
2.259098 64.362 140.7096
2.275468 64.552 139.7462
2.291957 64.743 138.7867
2.308566 64.933 137.8309
2.325295 65.124 136.8785
2.342145 65.315 135.9291
2.359117 65.505 134.9818
2.376212 65.696 134.0359
2.393431 65.887 133.0906
2.410775 66.077 132.1448
2.428244 66.268 131.1977
2.445840 66.459 130.2481
2.463564 66.649 129.2951
2.481416 66.840 128.3378
2.499397 67.031 127.3754
2.517509 67.221 126.4073
2.535752 67.412 125.4334
2.554127 67.602 124.4542
2.572635 67.793 123.4707
2.591277 67.983 122.4843
2.610055 68.173 121.4964
2.628968 68.362 120.5082
2.648019 68.551 119.5207
2.667208 68.741 118.5343
2.686535 68.929 117.5492
2.706003 69.118 116.5654
2.725612 69.306 115.5825
2.745363 69.494 114.6000
2.765257 69.682 113.6175
2.785295 69.869 112.6342
2.805478 70.056 111.6493
2.825808 70.243 110.6619
2.846285 70.430 109.6713
2.866910 70.617 108.6767
2.887685 70.803 107.6775
2.908611 70.989 106.6734
2.929688 71.174 105.6646
2.950917 71.359 104.6515
2.972301 71.544 103.6351
2.993839 71.728 102.6162
3.015534 71.912 101.5959
3.037386 72.095 100.5747
3.059396 72.278 99.5533
3.081565 72.460 98.5318
3.103896 72.641 97.5104
3.126388 72.822 96.4890
3.149043 73.003 95.4672
3.171862 73.183 94.4447
3.194847 73.363 93.4210
3.217998 73.542 92.3954
3.241317 73.720 91.3672
3.264805 73.898 90.3359
3.288463 74.076 89.3009
3.312293 74.253 88.2621
3.336295 74.429 87.2197
3.360471 74.605 86.1740
3.384822 74.780 85.1258
3.409350 74.954 84.0759
3.434056 75.128 83.0248
3.458940 75.300 81.9732
3.484005 75.472 80.9216
3.509252 75.643 79.8700
3.534681 75.814 78.8185
3.560295 75.984 77.7671
3.586094 76.153 76.7152
3.612081 76.322 75.6624
3.638255 76.490 74.6080
3.664620 76.657 73.5513
3.691175 76.823 72.4919
3.717923 76.988 71.4295
3.744864 77.153 70.3644
3.772001 77.317 69.2972
3.799335 77.479 68.2287
3.826866 77.641 67.1596
3.854597 77.802 66.0908
3.882529 77.962 65.0226
3.910664 78.122 63.9556
3.939002 78.280 62.8897
3.967546 78.438 61.8248
3.996296 78.595 60.7604
4.025255 78.751 59.6956
4.054423 78.906 58.6298
4.083804 79.060 57.5624
4.113396 79.213 56.4933
4.143204 79.365 55.4228
4.173227 79.516 54.3518
4.203468 79.667 53.2809
4.233928 79.816 52.2112
4.264609 79.964 51.1431
4.295512 80.112 50.0773
4.326639 80.258 49.0137
4.357992 80.404 47.9523
4.389572 80.549 46.8923
4.421380 80.693 45.8330
4.453419 80.836 44.7737
4.485691 80.978 43.7141
4.518196 81.118 42.6546
4.550936 81.258 41.5956
4.583914 81.397 40.5380
4.617131 81.535 39.4825
4.650589 81.672 38.4298
4.684289 81.809 37.3803
4.718233 81.944 36.3339
4.752424 82.079 35.2903
4.786862 82.213 34.2489
4.821549 82.346 33.2089
4.856488 82.478 32.1702
4.891680 82.609 31.1326
4.927127 82.739 30.0968
4.962831 82.868 29.0632
4.998794 82.996 28.0325
5.035017 83.124 27.0051
5.071503 83.251 25.9814
5.108253 83.377 24.9611
5.145270 83.503 23.9438
5.182555 83.627 22.9291
5.220110 83.751 21.9164
5.257937 83.874 20.9056
5.296038 83.997 19.8972
5.334415 84.118 18.8914
5.373071 84.239 17.8886
5.412006 84.359 16.8892
5.451224 84.479 15.8931
5.490725 84.598 14.9001
5.530514 84.716 13.9102
5.570590 84.834 12.9225
5.610957 84.951 11.9371
5.651616 85.067 10.9539
5.692570 85.183 9.9731
5.733821 85.298 8.9950
5.775370 85.412 8.0197
5.817221 85.526 7.0471
5.859375 85.640 6.0773
5.901834 85.752 5.1097
5.944602 85.864 4.1442
5.987679 85.976 3.1806
6.031068 86.087 2.2189
6.074771 86.197 1.2593
6.118792 86.307 0.3018
6.163131 86.416 -0.6534
6.207792 86.524 -1.6064
6.252776 86.632 -2.5575
6.298086 86.739 -3.5070
6.343725 86.846 -4.4550
6.389694 86.952 -5.4014
6.435996 87.057 -6.3462
6.482634 87.162 -7.2891
6.529610 87.265 -8.2300
6.576926 87.369 -9.1692
6.624585 87.471 -10.1066
6.672590 87.573 -11.0426
6.720942 87.674 -11.9772
6.769645 87.775 -12.9103
6.818700 87.874 -13.8417
6.868111 87.973 -14.7711
6.917881 88.071 -15.6985
6.968010 88.169 -16.6239
7.018504 88.265 -17.5476
7.069362 88.361 -18.4696
7.120590 88.456 -19.3898
7.172189 88.551 -20.3081
7.224161 88.644 -21.2242
7.276511 88.737 -22.1379
7.329239 88.829 -23.0493
7.382350 88.920 -23.9584
7.435845 89.010 -24.8653
7.489729 89.100 -25.7700
7.544002 89.189 -26.6724
7.598669 89.277 -27.5722
7.653732 89.364 -28.4694
7.709194 89.451 -29.3638
7.765058 89.537 -30.2557
7.821327 89.622 -31.1451
7.878004 89.706 -32.0320
7.935091 89.790 -32.9163
7.992592 89.873 -33.7980
8.050510 89.955 -34.6769
8.108847 90.036 -35.5532
8.167607 90.117 -36.4271
8.226793 90.197 -37.2985
8.286408 90.277 -38.1675
8.346454 90.356 -39.0341
8.406936 90.434 -39.8983
8.467856 90.512 -40.7601
8.529218 90.589 -41.6198
8.591024 90.665 -42.4773
8.653278 90.740 -43.3327
8.715983 90.815 -44.1860
8.779143 90.890 -45.0372
8.842760 90.963 -45.8865
8.906839 91.036 -46.7338
8.971381 91.108 -47.5792
9.036392 91.180 -48.4227
9.101873 91.251 -49.2643
9.167829 91.321 -50.1039
9.234263 91.390 -50.9415
9.301178 91.459 -51.7773
9.368578 91.527 -52.6111
9.436467 91.594 -53.4427
9.504847 91.661 -54.2722
9.573723 91.726 -55.0995
9.643099 91.791 -55.9247
9.712976 91.856 -56.7475
9.783361 91.919 -57.5679
9.854255 91.982 -58.3859
9.925663 92.044 -59.2012
9.997588 92.106 -60.0140
10.070035 92.166 -60.8242
10.143007 92.226 -61.6318
10.216507 92.286 -62.4366
10.290540 92.344 -63.2387
10.365109 92.402 -64.0381
10.440219 92.460 -64.8348
10.515873 92.517 -65.6289
10.592076 92.573 -66.4203
10.668830 92.629 -67.2092
10.746141 92.684 -67.9957
10.824012 92.739 -68.7798
10.902447 92.793 -69.5615
10.981451 92.847 -70.3411
11.061027 92.900 -71.1186
11.141180 92.952 -71.8940
11.221913 93.004 -72.6676
11.303232 93.056 -73.4392
11.385140 93.107 -74.2091
11.467641 93.157 -74.9772
11.550741 93.207 -75.7435
11.634442 93.257 -76.5081
11.718750 93.305 -77.2709
11.803669 93.353 -78.0319
11.889203 93.401 -78.7910
11.975357 93.448 -79.5482
12.062136 93.494 -80.3034
12.149543 93.540 -81.0564
12.237583 93.585 -81.8072
12.326262 93.629 -82.5557
12.415583 93.673 -83.3016
12.505552 93.716 -84.0450
12.596172 93.759 -84.7858
12.687449 93.801 -85.5240
12.779387 93.842 -86.2594
12.871992 93.883 -86.9922
12.965268 93.924 -87.7222
13.059220 93.964 -88.4496
13.153852 94.004 -89.1744
13.249170 94.043 -89.8967
13.345179 94.082 -90.6166
13.441884 94.120 -91.3342
13.539289 94.158 -92.0496
13.637401 94.196 -92.7629
13.736223 94.233 -93.4743
13.835761 94.270 -94.1838
13.936021 94.306 -94.8914
14.037007 94.341 -95.5971
14.138725 94.377 -96.3010
14.241180 94.411 -97.0030
14.344377 94.446 -97.7030
14.448323 94.479 -98.4009
14.553021 94.512 -99.0966
14.658478 94.545 -99.7898
14.764700 94.577 -100.4806
14.871691 94.608 -101.1686
14.979457 94.639 -101.8539
15.088005 94.669 -102.5363
15.197339 94.699 -103.2156
15.307465 94.728 -103.8918
15.418389 94.757 -104.5651
15.530117 94.786 -105.2355
15.642655 94.814 -105.9029
15.756008 94.842 -106.5676
15.870182 94.869 -107.2298
15.985184 94.896 -107.8895
16.101019 94.923 -108.5471
16.217694 94.949 -109.2026
16.335214 94.975 -109.8563
16.453586 95.001 -110.5082
16.572815 95.026 -111.1583
16.692909 95.051 -111.8066
16.813872 95.075 -112.4533
16.935713 95.099 -113.0981
17.058436 95.122 -113.7410
17.182048 95.145 -114.3818
17.306556 95.167 -115.0203
17.431967 95.189 -115.6565
17.558286 95.210 -116.2902
17.685521 95.231 -116.9212
17.813677 95.251 -117.5496
17.942762 95.271 -118.1754
18.072783 95.290 -118.7986
18.203746 95.309 -119.4193
18.335658 95.328 -120.0377
18.468526 95.346 -120.6539
18.602356 95.364 -121.2680
18.737156 95.381 -121.8802
18.872934 95.399 -122.4905
19.009695 95.415 -123.0990
19.147447 95.432 -123.7057
19.286197 95.448 -124.3105
19.425953 95.463 -124.9135
19.566721 95.478 -125.5144
19.708510 95.493 -126.1133
19.851326 95.507 -126.7098
19.995177 95.520 -127.3043
20.140070 95.534 -127.8965
20.286013 95.547 -128.4865
20.433014 95.559 -129.0743
20.581080 95.572 -129.6602
20.730219 95.584 -130.2441
20.880439 95.595 -130.8264
21.031747 95.606 -131.4069
21.184152 95.617 -131.9856
21.337661 95.628 -132.5626
21.492282 95.637 -133.1377
21.648024 95.647 -133.7108
21.804895 95.656 -134.2814
21.962902 95.665 -134.8496
22.122054 95.673 -135.4151
22.282360 95.681 -135.9778
22.443827 95.688 -136.5377
22.606464 95.696 -137.0950
22.770280 95.703 -137.6498
22.935283 95.710 -138.2026
23.101481 95.717 -138.7538
23.268884 95.723 -139.3038
23.437500 95.730 -139.8529
23.607338 95.736 -140.4015
23.778406 95.741 -140.9496
23.950714 95.747 -141.4972
24.124271 95.751 -142.0441
24.299086 95.755 -142.5899
24.475167 95.759 -143.1342
24.652524 95.762 -143.6764
24.831166 95.764 -144.2161
25.011103 95.766 -144.7529
25.192344 95.767 -145.2864
25.374898 95.768 -145.8166
25.558775 95.768 -146.3434
25.743984 95.768 -146.8671
25.930536 95.768 -147.3878
26.118439 95.767 -147.9059
26.307704 95.766 -148.4215
26.498341 95.765 -148.9351
26.690359 95.764 -149.4467
26.883768 95.762 -149.9563
27.078579 95.761 -150.4642
27.274801 95.758 -150.9704
27.472446 95.756 -151.4749
27.671522 95.753 -151.9777
27.872042 95.750 -152.4789
28.074014 95.747 -152.9787
28.277450 95.743 -153.4772
28.482360 95.739 -153.9742
28.688755 95.734 -154.4700
28.896645 95.729 -154.9642
29.106042 95.724 -155.4565
29.316957 95.718 -155.9468
29.529400 95.711 -156.4345
29.743382 95.704 -156.9196
29.958915 95.697 -157.4019
30.176009 95.690 -157.8815
30.394677 95.683 -158.3590
30.614929 95.675 -158.8348
30.836778 95.668 -159.3096
31.060234 95.660 -159.7840
31.285309 95.652 -160.2583
31.512015 95.643 -160.7327
31.740364 95.634 -161.2068
31.970368 95.624 -161.6801
32.202039 95.614 -162.1518
32.435388 95.603 -162.6213
32.670428 95.591 -163.0879
32.907171 95.579 -163.5512
33.145630 95.566 -164.0113
33.385817 95.553 -164.4683
33.627745 95.540 -164.9227
33.871425 95.527 -165.3750
34.116871 95.513 -165.8256
34.364096 95.499 -166.2747
34.613113 95.485 -166.7224
34.863934 95.470 -167.1686
35.116572 95.455 -167.6132
35.371041 95.440 -168.0558
35.627354 95.424 -168.4962
35.885525 95.408 -168.9344
36.145566 95.391 -169.3703
36.407492 95.374 -169.8041
36.671316 95.357 -170.2358
36.937051 95.339 -170.6660
37.204712 95.322 -171.0947
37.474313 95.304 -171.5223
37.745867 95.285 -171.9490
38.019389 95.267 -172.3745
38.294893 95.248 -172.7986
38.572394 95.228 -173.2208
38.851905 95.208 -173.6404
39.133442 95.187 -174.0570
39.417019 95.167 -174.4705
39.702651 95.146 -174.8811
39.990353 95.125 -175.2893
40.280140 95.103 -175.6957
40.572026 95.082 -176.1009
40.866028 95.060 -176.5050
41.162160 95.038 -176.9077
41.460438 95.015 -177.3085
41.760877 94.992 -177.7067
42.063494 94.969 -178.1017
42.368303 94.945 -178.4933
42.675322 94.920 -178.8817
42.984565 94.896 -179.2673
43.296048 94.871 -179.6506
43.609789 94.845 179.9687
43.925804 94.819 179.5908
44.244108 94.793 179.2164
44.564719 94.766 178.8462
44.887654 94.739 178.4800
45.212928 94.712 178.1171
45.540560 94.686 177.7559
45.870565 94.659 177.3947
46.202962 94.632 177.0323
46.537768 94.604 176.6683
46.875000 94.576 176.3033
47.214676 94.547 175.9387
47.556813 94.517 175.5755
47.901429 94.486 175.2151
48.248542 94.455 174.8579
48.598171 94.423 174.5042
48.950334 94.390 174.1539
49.305048 94.357 173.8069
49.662333 94.324 173.4630
50.022206 94.291 173.1217
50.384688 94.257 172.7825
50.749796 94.223 172.4453
51.117550 94.189 172.1102
51.487969 94.154 171.7781
51.861072 94.119 171.4495
52.236879 94.084 171.1248
52.615409 94.049 170.8036
52.996681 94.014 170.4851
53.380717 93.979 170.1683
53.767536 93.943 169.8530
54.157158 93.907 169.5391
54.549603 93.871 169.2272
54.944892 93.834 168.9183
55.343045 93.797 168.6129
55.744084 93.759 168.3115
56.148028 93.721 168.0146
56.554900 93.683 167.7227
56.964720 93.644 167.4354
57.377510 93.605 167.1521
57.793291 93.566 166.8714
58.212085 93.526 166.5919
58.633914 93.487 166.3130
59.058799 93.446 166.0348
59.486764 93.406 165.7581
59.917829 93.364 165.4840
60.352019 93.322 165.2128
60.789354 93.280 164.9447
61.229859 93.238 164.6791
61.673556 93.195 164.4160
62.120468 93.152 164.1558
62.570618 93.109 163.8984
63.024031 93.065 163.6437
63.480729 93.022 163.3907
63.940736 92.978 163.1395
64.404077 92.934 162.8917
64.870776 92.888 162.6503
65.340856 92.842 162.4180
65.814343 92.796 162.1956
66.291261 92.751 161.9815
66.771635 92.705 161.7728
67.255489 92.660 161.5670
67.742850 92.615 161.3630
68.233743 92.569 161.1611
68.728193 92.522 160.9619
69.226226 92.475 160.7659
69.727867 92.427 160.5735
70.233144 92.379 160.3847
70.742083 92.330 160.1993
71.254709 92.281 160.0172
71.771050 92.232 159.8383
72.291132 92.182 159.6628
72.814984 92.133 159.4905
73.342631 92.084 159.3207
73.874102 92.035 159.1532
74.409424 91.986 158.9882
74.948626 91.937 158.8264
75.491734 91.888 158.6696
76.038779 91.839 158.5186
76.589787 91.790 158.3734
77.144788 91.740 158.2332
77.703811 91.691 158.0973
78.266885 91.640 157.9658
78.834039 91.590 157.8392
79.405303 91.539 157.7180
79.980706 91.487 157.6021
80.560280 91.435 157.4910
81.144053 91.383 157.3838
81.732056 91.331 157.2788
82.324320 91.279 157.1749
82.920876 91.228 157.0721
83.521755 91.176 156.9713
84.126988 91.124 156.8738
84.736607 91.072 156.7803
85.350643 91.020 156.6920
85.969129 90.967 156.6099
86.592097 90.915 156.5352
87.219579 90.863 156.4688
87.851608 90.810 156.4112
88.488217 90.757 156.3618
89.129439 90.705 156.3191
89.775308 90.653 156.2813
90.425856 90.601 156.2471
