* Measurement data measured by REW V5.31.3
* Source: Headset (CX31993 HIFI AUDIO), MICROPHONE (Master Volume), R, volume: 0.400
* Format: 256k Log Swept Sine, 1 sweep at -11.9 dBFS with no timing reference
* Dated: 05 26, 25 5:56:00 PM
* REW Settings:
*  C-weighting compensation: Off
*  Target level: 75.0 dB
* Note: ; 
* Measurement: Final A5000 R
* Smoothing: 1/12 octave
* Frequency Step: 96 ppo
* Start Frequency: 0.36621094 Hz
*
* Freq(Hz) SPL(dB) Phase(degrees)
0.366211 30.720 47.1212
0.368865 30.760 47.1078
0.371538 30.819 47.0889
0.374230 30.892 47.0673
0.376942 30.974 47.0454
0.379673 31.062 47.0249
0.382424 31.153 47.0068
0.385196 31.246 46.9917
0.387987 31.341 46.9798
0.390798 31.437 46.9713
0.393630 31.534 46.9661
0.396483 31.632 46.9641
0.399356 31.730 46.9653
0.402250 31.830 46.9694
0.405165 31.930 46.9765
0.408101 32.030 46.9862
0.411058 32.132 46.9985
0.414037 32.234 47.0133
0.417037 32.337 47.0303
0.420059 32.441 47.0494
0.423103 32.545 47.0705
0.426169 32.650 47.0934
0.429257 32.756 47.1179
0.432368 32.863 47.1440
0.435501 32.971 47.1713
0.438656 33.079 47.1999
0.441835 33.188 47.2295
0.445037 33.298 47.2599
0.448262 33.409 47.2911
0.451510 33.520 47.3228
0.454782 33.632 47.3548
0.458077 33.745 47.3871
0.461397 33.859 47.4195
0.464740 33.974 47.4518
0.468108 34.090 47.4839
0.471500 34.206 47.5155
0.474917 34.323 47.5466
0.478358 34.442 47.5770
0.481825 34.561 47.6065
0.485316 34.680 47.6350
0.488833 34.801 47.6623
0.492375 34.923 47.6884
0.495943 35.045 47.7129
0.499537 35.169 47.7358
0.503157 35.293 47.7570
0.506803 35.418 47.7762
0.510475 35.544 47.7934
0.514175 35.671 47.8084
0.517900 35.799 47.8211
0.521653 35.928 47.8313
0.525434 36.058 47.8389
0.529241 36.188 47.8438
0.533076 36.320 47.8458
0.536939 36.453 47.8448
0.540830 36.586 47.8408
0.544749 36.721 47.8335
0.548696 36.856 47.8228
0.552673 36.993 47.8087
0.556677 37.130 47.7910
0.560711 37.269 47.7696
0.564774 37.408 47.7444
0.568867 37.549 47.7154
0.572989 37.690 47.6823
0.577141 37.833 47.6452
0.581324 37.976 47.6038
0.585536 38.121 47.5582
0.589779 38.267 47.5083
0.594053 38.414 47.4539
0.598358 38.561 47.3949
0.602694 38.710 47.3314
0.607061 38.860 47.2632
0.611460 39.011 47.1903
0.615891 39.163 47.1126
0.620354 39.317 47.0300
0.624849 39.471 46.9425
0.629377 39.627 46.8501
0.633938 39.783 46.7526
0.638532 39.941 46.6501
0.643159 40.100 46.5424
0.647819 40.260 46.4297
0.652514 40.421 46.3117
0.657242 40.584 46.1886
0.662005 40.747 46.0602
0.666802 40.912 45.9266
0.671634 41.078 45.7877
0.676501 41.245 45.6436
0.681403 41.413 45.4942
0.686341 41.583 45.3395
0.691314 41.754 45.1796
0.696324 41.925 45.0145
0.701370 42.098 44.8444
0.706452 42.271 44.6693
0.711571 42.444 44.4897
0.716728 42.618 44.3059
0.721921 42.789 44.1189
0.727153 42.959 43.9296
0.732422 43.125 43.7397
0.737729 43.288 43.5507
0.743075 43.448 43.3643
0.748460 43.605 43.1816
0.753883 43.761 43.0034
0.759346 43.915 42.8300
0.764849 44.069 42.6615
0.770391 44.222 42.4976
0.775974 44.376 42.3382
0.781597 44.529 42.1828
0.787261 44.682 42.0312
0.792966 44.835 41.8829
0.798712 44.988 41.7376
0.804500 45.141 41.5948
0.810329 45.294 41.4543
0.816201 45.447 41.3155
0.822116 45.600 41.1783
0.828073 45.753 41.0422
0.834074 45.906 40.9069
0.840118 46.059 40.7720
0.846206 46.212 40.6373
0.852338 46.365 40.5024
0.858514 46.518 40.3670
0.864735 46.671 40.2309
0.871001 46.824 40.0936
0.877313 46.978 39.9550
0.883670 47.131 39.8147
0.890074 47.284 39.6725
0.896524 47.437 39.5281
0.903020 47.590 39.3813
0.909564 47.744 39.2318
0.916155 47.897 39.0794
0.922794 48.050 38.9239
0.929481 48.204 38.7649
0.936216 48.358 38.6023
0.943000 48.512 38.4359
0.949834 48.666 38.2655
0.956717 48.820 38.0908
0.963649 48.974 37.9116
0.970632 49.129 37.7278
0.977666 49.283 37.5392
0.984750 49.438 37.3455
0.991886 49.593 37.1466
0.999074 49.749 36.9424
1.006314 49.905 36.7326
1.013606 50.061 36.5171
1.020951 50.217 36.2957
1.028349 50.374 36.0683
1.035801 50.531 35.8348
1.043307 50.689 35.5950
1.050867 50.847 35.3489
1.058482 51.005 35.0965
1.066152 51.164 34.8378
1.073878 51.324 34.5732
1.081660 51.484 34.3032
1.089498 51.644 34.0284
1.097393 51.804 33.7502
1.105345 51.965 33.4698
1.113355 52.125 33.1887
1.121423 52.286 32.9079
1.129549 52.446 32.6282
1.137734 52.606 32.3501
1.145979 52.765 32.0738
1.154283 52.924 31.7991
1.162647 53.083 31.5261
1.171072 53.242 31.2545
1.179558 53.400 30.9841
1.188106 53.558 30.7147
1.196715 53.716 30.4460
1.205387 53.873 30.1778
1.214122 54.030 29.9098
1.222920 54.187 29.6418
1.231782 54.344 29.3736
1.240708 54.500 29.1049
1.249699 54.656 28.8354
1.258754 54.812 28.5649
1.267876 54.967 28.2931
1.277063 55.123 28.0199
1.286318 55.278 27.7450
1.295639 55.433 27.4681
1.305027 55.588 27.1890
1.314484 55.743 26.9074
1.324009 55.898 26.6232
1.333604 56.053 26.3361
1.343268 56.208 26.0458
1.353002 56.363 25.7522
1.362806 56.518 25.4549
1.372681 56.673 25.1539
1.382628 56.828 24.8488
1.392647 56.983 24.5395
1.402739 57.138 24.2258
1.412904 57.294 23.9075
1.423142 57.450 23.5847
1.433455 57.606 23.2575
1.443843 57.762 22.9261
1.454305 57.919 22.5910
1.464844 58.075 22.2531
1.475459 58.231 21.9134
1.486150 58.387 21.5727
1.496920 58.543 21.2319
1.507767 58.698 20.8913
1.518693 58.853 20.5513
1.529698 59.007 20.2118
1.540783 59.161 19.8727
1.551948 59.314 19.5338
1.563194 59.466 19.1950
1.574521 59.619 18.8558
1.585931 59.770 18.5161
1.597423 59.922 18.1755
1.608999 60.073 17.8338
1.620658 60.223 17.4907
1.632402 60.373 17.1459
1.644232 60.523 16.7990
1.656146 60.672 16.4498
1.668147 60.821 16.0980
1.680235 60.970 15.7432
1.692411 61.119 15.3853
1.704675 61.267 15.0238
1.717028 61.415 14.6585
1.729470 61.563 14.2891
1.742003 61.711 13.9153
1.754626 61.859 13.5368
1.767341 62.006 13.1534
1.780147 62.154 12.7649
1.793047 62.302 12.3712
1.806040 62.449 11.9723
1.819128 62.597 11.5684
1.832310 62.744 11.1599
1.845587 62.890 10.7474
1.858961 63.037 10.3313
1.872432 63.183 9.9122
1.886001 63.328 9.4907
1.899667 63.472 9.0670
1.913433 63.616 8.6415
1.927299 63.759 8.2143
1.941265 63.902 7.7855
1.955332 64.044 7.3553
1.969501 64.185 6.9238
1.983773 64.326 6.4909
1.998148 64.467 6.0567
2.012627 64.606 5.6213
2.027212 64.746 5.1845
2.041902 64.884 4.7464
2.056698 65.023 4.3068
2.071602 65.161 3.8657
2.086614 65.298 3.4231
2.101734 65.436 2.9787
2.116964 65.573 2.5324
2.132304 65.709 2.0842
2.147756 65.846 1.6337
2.163320 65.982 1.1809
2.178996 66.118 0.7255
2.194786 66.254 0.2673
2.210690 66.389 -0.1936
2.226710 66.523 -0.6574
2.242845 66.657 -1.1240
2.259098 66.790 -1.5931
2.275468 66.922 -2.0646
2.291957 67.054 -2.5381
2.308566 67.184 -3.0134
2.325295 67.314 -3.4903
2.342145 67.443 -3.9684
2.359117 67.572 -4.4476
2.376212 67.700 -4.9276
2.393431 67.827 -5.4082
2.410775 67.954 -5.8893
2.428244 68.080 -6.3707
2.445840 68.206 -6.8524
2.463564 68.332 -7.3343
2.481416 68.456 -7.8163
2.499397 68.581 -8.2985
2.517509 68.705 -8.7811
2.535752 68.829 -9.2642
2.554127 68.952 -9.7482
2.572635 69.075 -10.2335
2.591277 69.197 -10.7205
2.610055 69.318 -11.2094
2.628968 69.438 -11.7003
2.648019 69.558 -12.1930
2.667208 69.677 -12.6874
2.686535 69.795 -13.1831
2.706003 69.912 -13.6798
2.725612 70.029 -14.1772
2.745363 70.145 -14.6747
2.765257 70.260 -15.1723
2.785295 70.374 -15.6694
2.805478 70.489 -16.1658
2.825808 70.602 -16.6612
2.846285 70.715 -17.1555
2.866910 70.828 -17.6486
2.887685 70.941 -18.1406
2.908611 71.052 -18.6316
2.929688 71.164 -19.1220
2.950917 71.275 -19.6123
2.972301 71.385 -20.1028
2.993839 71.494 -20.5940
3.015534 71.603 -21.0858
3.037386 71.711 -21.5782
3.059396 71.818 -22.0708
3.081565 71.924 -22.5636
3.103896 72.030 -23.0560
3.126388 72.135 -23.5478
3.149043 72.240 -24.0385
3.171862 72.344 -24.5279
3.194847 72.448 -25.0157
3.217998 72.552 -25.5016
3.241317 72.655 -25.9855
3.264805 72.758 -26.4674
3.288463 72.860 -26.9475
3.312293 72.962 -27.4261
3.336295 73.064 -27.9036
3.360471 73.165 -28.3802
3.384822 73.265 -28.8561
3.409350 73.365 -29.3314
3.434056 73.464 -29.8060
3.458940 73.563 -30.2798
3.484005 73.662 -30.7527
3.509252 73.760 -31.2245
3.534681 73.857 -31.6950
3.560295 73.955 -32.1639
3.586094 74.052 -32.6313
3.612081 74.149 -33.0969
3.638255 74.246 -33.5608
3.664620 74.343 -34.0231
3.691175 74.439 -34.4838
3.717923 74.536 -34.9432
3.744864 74.631 -35.4015
3.772001 74.727 -35.8588
3.799335 74.822 -36.3153
3.826866 74.917 -36.7710
3.854597 75.012 -37.2260
3.882529 75.107 -37.6803
3.910664 75.201 -38.1340
3.939002 75.296 -38.5872
3.967546 75.390 -39.0397
3.996296 75.484 -39.4917
4.025255 75.579 -39.9431
4.054423 75.673 -40.3940
4.083804 75.767 -40.8443
4.113396 75.861 -41.2943
4.143204 75.955 -41.7440
4.173227 76.049 -42.1936
4.203468 76.143 -42.6434
4.233928 76.237 -43.0937
4.264609 76.330 -43.5445
4.295512 76.424 -43.9962
4.326639 76.518 -44.4489
4.357992 76.611 -44.9027
4.389572 76.705 -45.3577
4.421380 76.798 -45.8139
4.453419 76.892 -46.2713
4.485691 76.986 -46.7298
4.518196 77.079 -47.1897
4.550936 77.172 -47.6511
4.583914 77.266 -48.1140
4.617131 77.359 -48.5788
4.650589 77.452 -49.0457
4.684289 77.545 -49.5149
4.718233 77.637 -49.9865
4.752424 77.730 -50.4608
4.786862 77.822 -50.9377
4.821549 77.915 -51.4173
4.856488 78.007 -51.8995
4.891680 78.099 -52.3844
4.927127 78.190 -52.8720
4.962831 78.282 -53.3623
4.998794 78.373 -53.8553
5.035017 78.464 -54.3512
5.071503 78.554 -54.8501
5.108253 78.645 -55.3521
5.145270 78.734 -55.8574
5.182555 78.824 -56.3660
5.220110 78.913 -56.8779
5.257937 79.001 -57.3931
5.296038 79.089 -57.9113
5.334415 79.177 -58.4324
5.373071 79.264 -58.9563
5.412006 79.350 -59.4828
5.451224 79.436 -60.0119
5.490725 79.522 -60.5438
5.530514 79.607 -61.0786
5.570590 79.691 -61.6163
5.610957 79.774 -62.1568
5.651616 79.857 -62.7000
5.692570 79.939 -63.2455
5.733821 80.021 -63.7929
5.775370 80.101 -64.3420
5.817221 80.181 -64.8926
5.859375 80.261 -65.4447
5.901834 80.339 -65.9985
5.944602 80.417 -66.5539
5.987679 80.494 -67.1109
6.031068 80.570 -67.6692
6.074771 80.645 -68.2283
6.118792 80.720 -68.7879
6.163131 80.794 -69.3476
6.207792 80.867 -69.9072
6.252776 80.939 -70.4668
6.298086 81.011 -71.0264
6.343725 81.081 -71.5860
6.389694 81.151 -72.1453
6.435996 81.220 -72.7039
6.482634 81.289 -73.2617
6.529610 81.357 -73.8180
6.576926 81.424 -74.3729
6.624585 81.490 -74.9261
6.672590 81.556 -75.4778
6.720942 81.621 -76.0279
6.769645 81.686 -76.5763
6.818700 81.750 -77.1228
6.868111 81.813 -77.6670
6.917881 81.876 -78.2089
6.968010 81.938 -78.7483
7.018504 82.001 -79.2852
7.069362 82.062 -79.8197
7.120590 82.123 -80.3517
7.172189 82.184 -80.8814
7.224161 82.245 -81.4087
7.276511 82.305 -81.9335
7.329239 82.365 -82.4559
7.382350 82.425 -82.9759
7.435845 82.485 -83.4936
7.489729 82.545 -84.0093
7.544002 82.604 -84.5231
7.598669 82.664 -85.0352
7.653732 82.723 -85.5458
7.709194 82.783 -86.0549
7.765058 82.842 -86.5629
7.821327 82.902 -87.0699
7.878004 82.961 -87.5762
7.935091 83.021 -88.0819
7.992592 83.080 -88.5876
8.050510 83.140 -89.0933
8.108847 83.199 -89.5993
8.167607 83.259 -90.1059
8.226793 83.318 -90.6131
8.286408 83.377 -91.1211
8.346454 83.437 -91.6303
8.406936 83.496 -92.1407
8.467856 83.555 -92.6526
8.529218 83.613 -93.1660
8.591024 83.672 -93.6809
8.653278 83.730 -94.1974
8.715983 83.788 -94.7153
8.779143 83.845 -95.2348
8.842760 83.902 -95.7557
8.906839 83.958 -96.2779
8.971381 84.014 -96.8013
9.036392 84.069 -97.3255
9.101873 84.124 -97.8503
9.167829 84.178 -98.3755
9.234263 84.231 -98.9008
9.301178 84.284 -99.4259
9.368578 84.336 -99.9506
9.436467 84.387 -100.4743
9.504847 84.437 -100.9968
9.573723 84.487 -101.5176
9.643099 84.536 -102.0367
9.712976 84.585 -102.5536
9.783361 84.633 -103.0682
9.854255 84.680 -103.5801
9.925663 84.727 -104.0891
9.997588 84.774 -104.5951
10.070035 84.820 -105.0981
10.143007 84.865 -105.5980
10.216507 84.911 -106.0949
10.290540 84.956 -106.5888
10.365109 85.001 -107.0799
10.440219 85.045 -107.5683
10.515873 85.090 -108.0544
10.592076 85.135 -108.5384
10.668830 85.179 -109.0207
10.746141 85.224 -109.5016
10.824012 85.268 -109.9815
10.902447 85.313 -110.4609
10.981451 85.357 -110.9400
11.061027 85.401 -111.4194
11.141180 85.446 -111.8994
11.221913 85.490 -112.3802
11.303232 85.534 -112.8623
11.385140 85.577 -113.3459
11.467641 85.621 -113.8311
11.550741 85.664 -114.3181
11.634442 85.707 -114.8070
11.718750 85.749 -115.2979
11.803669 85.790 -115.7906
11.889203 85.831 -116.2851
11.975357 85.872 -116.7812
12.062136 85.911 -117.2787
12.149543 85.950 -117.7773
12.237583 85.988 -118.2768
12.326262 86.025 -118.7768
12.415583 86.062 -119.2771
12.505552 86.097 -119.7771
12.596172 86.132 -120.2765
12.687449 86.165 -120.7750
12.779387 86.198 -121.2722
12.871992 86.230 -121.7676
12.965268 86.261 -122.2609
13.059220 86.291 -122.7519
13.153852 86.321 -123.2401
13.249170 86.350 -123.7253
13.345179 86.378 -124.2073
13.441884 86.406 -124.6858
13.539289 86.433 -125.1609
13.637401 86.460 -125.6323
13.736223 86.486 -126.1002
13.835761 86.512 -126.5645
13.936021 86.538 -127.0256
14.037007 86.564 -127.4837
14.138725 86.590 -127.9390
14.241180 86.615 -128.3922
14.344377 86.641 -128.8436
14.448323 86.667 -129.2939
14.553021 86.693 -129.7437
14.658478 86.720 -130.1935
14.764700 86.746 -130.6441
14.871691 86.773 -131.0959
14.979457 86.799 -131.5495
15.088005 86.825 -132.0052
15.197339 86.851 -132.4634
15.307465 86.877 -132.9240
15.418389 86.902 -133.3871
15.530117 86.927 -133.8522
15.642655 86.951 -134.3191
15.756008 86.975 -134.7871
15.870182 86.998 -135.2556
15.985184 87.020 -135.7237
16.101019 87.041 -136.1908
16.217694 87.061 -136.6560
16.335214 87.081 -137.1189
16.453586 87.101 -137.5790
16.572815 87.120 -138.0360
16.692909 87.139 -138.4901
16.813872 87.158 -138.9416
16.935713 87.177 -139.3910
17.058436 87.196 -139.8392
17.182048 87.215 -140.2871
17.306556 87.235 -140.7358
17.431967 87.254 -141.1862
17.558286 87.273 -141.6391
17.685521 87.292 -142.0953
17.813677 87.310 -142.5548
17.942762 87.328 -143.0177
18.072783 87.345 -143.4831
18.203746 87.360 -143.9501
18.335658 87.374 -144.4172
18.468526 87.387 -144.8827
18.602356 87.398 -145.3448
18.737156 87.408 -145.8017
18.872934 87.417 -146.2517
19.009695 87.424 -146.6936
19.147447 87.432 -147.1267
19.286197 87.439 -147.5509
19.425953 87.446 -147.9670
19.566721 87.453 -148.3760
19.708510 87.461 -148.7799
19.851326 87.469 -149.1806
19.995177 87.479 -149.5806
20.140070 87.488 -149.9817
20.286013 87.498 -150.3856
20.433014 87.508 -150.7933
20.581080 87.517 -151.2050
20.730219 87.526 -151.6200
20.880439 87.533 -152.0369
21.031747 87.539 -152.4536
21.184152 87.543 -152.8678
21.337661 87.547 -153.2769
21.492282 87.549 -153.6789
21.648024 87.551 -154.0725
21.804895 87.552 -154.4571
21.962902 87.554 -154.8333
22.122054 87.557 -155.2028
22.282360 87.561 -155.5683
22.443827 87.566 -155.9331
22.606464 87.573 -156.3006
22.770280 87.581 -156.6742
22.935283 87.590 -157.0567
23.101481 87.598 -157.4498
23.268884 87.607 -157.8542
23.437500 87.615 -158.2693
23.607338 87.621 -158.6935
23.778406 87.626 -159.1244
23.950714 87.629 -159.5589
24.124271 87.630 -159.9942
24.299086 87.629 -160.4277
24.475167 87.627 -160.8574
24.652524 87.624 -161.2819
24.831166 87.621 -161.7009
25.011103 87.617 -162.1145
25.192344 87.612 -162.5232
25.374898 87.607 -162.9279
25.558775 87.603 -163.3295
25.743984 87.598 -163.7283
25.930536 87.593 -164.1246
26.118439 87.587 -164.5185
26.307704 87.582 -164.9097
26.498341 87.576 -165.2981
26.690359 87.570 -165.6835
26.883768 87.563 -166.0661
27.078579 87.557 -166.4460
27.274801 87.551 -166.8235
27.472446 87.545 -167.1992
27.671522 87.538 -167.5731
27.872042 87.531 -167.9455
28.074014 87.524 -168.3162
28.277450 87.517 -168.6852
28.482360 87.510 -169.0522
28.688755 87.502 -169.4172
28.896645 87.494 -169.7803
29.106042 87.485 -170.1416
29.316957 87.476 -170.5013
29.529400 87.467 -170.8597
29.743382 87.458 -171.2166
29.958915 87.448 -171.5716
30.176009 87.437 -171.9240
30.394677 87.426 -172.2731
30.614929 87.415 -172.6183
30.836778 87.403 -172.9596
31.060234 87.391 -173.2975
31.285309 87.380 -173.6332
31.512015 87.368 -173.9682
31.740364 87.357 -174.3042
31.970368 87.346 -174.6424
32.202039 87.334 -174.9833
32.435388 87.321 -175.3263
32.670428 87.308 -175.6700
32.907171 87.293 -176.0125
33.145630 87.278 -176.3516
33.385817 87.261 -176.6858
33.627745 87.245 -177.0145
33.871425 87.228 -177.3382
34.116871 87.211 -177.6578
34.364096 87.194 -177.9751
34.613113 87.177 -178.2911
34.863934 87.160 -178.6065
35.116572 87.143 -178.9209
35.371041 87.125 -179.2334
35.627354 87.107 -179.5426
35.885525 87.088 -179.8474
36.145566 87.069 179.8523
36.407492 87.051 179.5560
36.671316 87.032 179.2621
36.937051 87.014 178.9689
37.204712 86.996 178.6748
37.474313 86.978 178.3790
37.745867 86.960 178.0817
38.019389 86.942 177.7835
38.294893 86.923 177.4855
38.572394 86.904 177.1880
38.851905 86.884 176.8907
39.133442 86.865 176.5923
39.417019 86.845 176.2911
39.702651 86.826 175.9863
39.990353 86.805 175.6783
40.280140 86.783 175.3694
40.572026 86.759 175.0631
40.866028 86.735 174.7635
41.162160 86.710 174.4734
41.460438 86.684 174.1938
41.760877 86.659 173.9230
42.063494 86.636 173.6583
42.368303 86.613 173.3964
42.675322 86.590 173.1355
42.984565 86.568 172.8756
43.296048 86.547 172.6178
43.609789 86.525 172.3630
43.925804 86.504 172.1105
44.244108 86.483 171.8578
44.564719 86.463 171.6012
44.887654 86.443 171.3386
45.212928 86.422 171.0707
45.540560 86.398 170.8021
45.870565 86.373 170.5390
46.202962 86.346 170.2874
46.537768 86.318 170.0493
46.875000 86.291 169.8226
47.214676 86.265 169.6010
47.556813 86.239 169.3782
47.901429 86.214 169.1505
48.248542 86.188 168.9184
48.598171 86.160 168.6860
48.950334 86.130 168.4582
49.305048 86.100 168.2387
49.662333 86.070 168.0284
50.022206 86.040 167.8258
50.384688 86.011 167.6282
50.749796 85.982 167.4325
51.117550 85.955 167.2357
51.487969 85.928 167.0356
51.861072 85.901 166.8307
52.236879 85.874 166.6213
52.615409 85.846 166.4099
52.996681 85.817 166.1998
53.380717 85.788 165.9935
53.767536 85.759 165.7910
54.157158 85.729 165.5898
54.549603 85.700 165.3871
54.944892 85.671 165.1817
55.343045 85.640 164.9750
55.744084 85.609 164.7694
56.148028 85.577 164.5665
56.554900 85.545 164.3659
56.964720 85.512 164.1667
57.377510 85.480 163.9684
57.793291 85.447 163.7721
58.212085 85.415 163.5781
58.633914 85.383 163.3852
59.058799 85.351 163.1908
59.486764 85.320 162.9939
59.917829 85.288 162.7971
60.352019 85.255 162.6056
60.789354 85.222 162.4241
61.229859 85.189 162.2534
61.673556 85.158 162.0905
62.120468 85.126 161.9311
62.570618 85.095 161.7727
63.024031 85.064 161.6153
63.480729 85.031 161.4601
63.940736 84.998 161.3083
64.404077 84.963 161.1610
64.870776 84.926 161.0184
65.340856 84.888 160.8804
65.814343 84.848 160.7476
66.291261 84.807 160.6235
66.771635 84.765 160.5146
67.255489 84.723 160.4249
67.742850 84.684 160.3494
68.233743 84.651 160.2714
68.728193 84.621 160.1702
69.226226 84.594 160.0345
69.727867 84.565 159.8708
70.233144 84.534 159.6985
70.742083 84.501 159.5362
71.254709 84.470 159.3885
71.771050 84.441 159.2463
72.291132 84.415 159.0959
72.814984 84.390 158.9307
73.342631 84.364 158.7556
73.874102 84.335 158.5819
74.409424 84.304 158.4195
74.948626 84.272 158.2726
75.491734 84.240 158.1391
76.038779 84.208 158.0140
76.589787 84.175 157.8934
77.144788 84.142 157.7762
77.703811 84.108 157.6643
78.266885 84.073 157.5587
78.834039 84.039 157.4578
79.405303 84.005 157.3573
79.980706 83.972 157.2534
80.560280 83.938 157.1461
81.144053 83.904 157.0388
81.732056 83.869 156.9358
82.324320 83.834 156.8388
82.920876 83.800 156.7460
83.521755 83.767 156.6542
84.126988 83.733 156.5620
84.736607 83.699 156.4705
85.350643 83.665 156.3826
85.969129 83.631 156.3004
86.592097 83.596 156.2237
87.219579 83.562 156.1506
87.851608 83.528 156.0790
88.488217 83.494 156.0087
89.129439 83.460 155.9415
89.775308 83.426 155.8777
90.425856 83.392 155.8142
91.081119 83.360 155.7457
91.741131 83.328 155.6679
92.405925 83.296 155.5810
93.075536 83.262 155.4888
93.750000 83.228 155.3969
94.429351 83.193 155.3100
95.113625 83.158 155.2315
95.802858 83.123 155.1637
