* Measurement data measured by REW V5.31.3
* Source: Headset (CX31993 HIFI AUDIO), MICROPHONE (Master Volume), R, volume: 0.400
* Format: 256k Log Swept Sine, 1 sweep at -11.9 dBFS with no timing reference
* Dated: 05 26, 25 6:07:41 PM
* REW Settings:
*  C-weighting compensation: Off
*  Target level: 75.0 dB
* Note: ; 
* Measurement: Final A5000 2HDF L
* Smoothing: 1/12 octave
* Frequency Step: 96 ppo
* Start Frequency: 0.36621094 Hz
*
* Freq(Hz) SPL(dB) Phase(degrees)
0.366211 37.623 61.5671
0.368865 37.655 61.4952
0.371538 37.703 61.3895
0.374230 37.762 61.2600
0.376942 37.828 61.1154
0.379673 37.898 60.9620
0.382424 37.972 60.8039
0.385196 38.048 60.6437
0.387987 38.124 60.4826
0.390798 38.202 60.3216
0.393630 38.280 60.1611
0.396483 38.359 60.0011
0.399356 38.439 59.8419
0.402250 38.519 59.6834
0.405165 38.600 59.5257
0.408101 38.682 59.3687
0.411058 38.764 59.2125
0.414037 38.846 59.0569
0.417037 38.930 58.9020
0.420059 39.013 58.7476
0.423103 39.098 58.5939
0.426169 39.183 58.4407
0.429257 39.269 58.2880
0.432368 39.355 58.1358
0.435501 39.442 57.9840
0.438656 39.529 57.8326
0.441835 39.618 57.6815
0.445037 39.707 57.5306
0.448262 39.796 57.3800
0.451510 39.886 57.2296
0.454782 39.977 57.0794
0.458077 40.068 56.9292
0.461397 40.160 56.7790
0.464740 40.253 56.6288
0.468108 40.347 56.4785
0.471500 40.441 56.3281
0.474917 40.536 56.1775
0.478358 40.631 56.0267
0.481825 40.727 55.8755
0.485316 40.824 55.7240
0.488833 40.922 55.5720
0.492375 41.020 55.4196
0.495943 41.119 55.2666
0.499537 41.219 55.1130
0.503157 41.319 54.9587
0.506803 41.421 54.8037
0.510475 41.523 54.6479
0.514175 41.625 54.4913
0.517900 41.729 54.3337
0.521653 41.833 54.1751
0.525434 41.938 54.0155
0.529241 42.043 53.8548
0.533076 42.150 53.6929
0.536939 42.257 53.5297
0.540830 42.365 53.3653
0.544749 42.474 53.1994
0.548696 42.583 53.0322
0.552673 42.694 52.8634
0.556677 42.805 52.6931
0.560711 42.917 52.5211
0.564774 43.030 52.3474
0.568867 43.143 52.1720
0.572989 43.258 51.9948
0.577141 43.373 51.8157
0.581324 43.489 51.6347
0.585536 43.606 51.4517
0.589779 43.724 51.2665
0.594053 43.842 51.0793
0.598358 43.962 50.8899
0.602694 44.082 50.6982
0.607061 44.204 50.5043
0.611460 44.326 50.3079
0.615891 44.449 50.1092
0.620354 44.573 49.9080
0.624849 44.697 49.7042
0.629377 44.823 49.4979
0.633938 44.950 49.2889
0.638532 45.077 49.0772
0.643159 45.206 48.8628
0.647819 45.335 48.6455
0.652514 45.466 48.4254
0.657242 45.597 48.2024
0.662005 45.729 47.9765
0.666802 45.862 47.7475
0.671634 45.996 47.5155
0.676501 46.132 47.2804
0.681403 46.268 47.0422
0.686341 46.405 46.8008
0.691314 46.543 46.5563
0.696324 46.682 46.3085
0.701370 46.821 46.0575
0.706452 46.961 45.8035
0.711571 47.102 45.5465
0.716728 47.242 45.2869
0.721921 47.382 45.0252
0.727153 47.520 44.7620
0.732422 47.656 44.4984
0.737729 47.789 44.2355
0.743075 47.921 43.9744
0.748460 48.050 43.7161
0.753883 48.179 43.4610
0.759346 48.306 43.2095
0.764849 48.434 42.9616
0.770391 48.561 42.7174
0.775974 48.688 42.4767
0.781597 48.816 42.2393
0.787261 48.943 42.0051
0.792966 49.070 41.7739
0.798712 49.198 41.5453
0.804500 49.326 41.3193
0.810329 49.453 41.0955
0.816201 49.581 40.8739
0.822116 49.709 40.6540
0.828073 49.837 40.4358
0.834074 49.965 40.2190
0.840118 50.094 40.0034
0.846206 50.222 39.7888
0.852338 50.351 39.5749
0.858514 50.479 39.3617
0.864735 50.608 39.1487
0.871001 50.737 38.9359
0.877313 50.866 38.7231
0.883670 50.996 38.5100
0.890074 51.125 38.2964
0.896524 51.255 38.0822
0.903020 51.384 37.8672
0.909564 51.514 37.6511
0.916155 51.645 37.4338
0.922794 51.775 37.2150
0.929481 51.906 36.9947
0.936216 52.037 36.7725
0.943000 52.168 36.5484
0.949834 52.299 36.3222
0.956717 52.431 36.0936
0.963649 52.563 35.8625
0.970632 52.695 35.6288
0.977666 52.828 35.3923
0.984750 52.961 35.1527
0.991886 53.094 34.9100
0.999074 53.227 34.6639
1.006314 53.361 34.4144
1.013606 53.496 34.1612
1.020951 53.631 33.9042
1.028349 53.766 33.6433
1.035801 53.902 33.3783
1.043307 54.038 33.1091
1.050867 54.175 32.8356
1.058482 54.312 32.5578
1.066152 54.450 32.2757
1.073878 54.588 31.9895
1.081660 54.727 31.6994
1.089498 54.866 31.4061
1.097393 55.006 31.1104
1.105345 55.146 30.8133
1.113355 55.286 30.5159
1.121423 55.427 30.2188
1.129549 55.567 29.9229
1.137734 55.707 29.6283
1.145979 55.848 29.3351
1.154283 55.988 29.0435
1.162647 56.129 28.7532
1.171072 56.269 28.4642
1.179558 56.410 28.1763
1.188106 56.550 27.8893
1.196715 56.691 27.6031
1.205387 56.831 27.3173
1.214122 56.972 27.0319
1.222920 57.112 26.7467
1.231782 57.253 26.4614
1.240708 57.393 26.1759
1.249699 57.534 25.8899
1.258754 57.675 25.6032
1.267876 57.815 25.3158
1.277063 57.956 25.0273
1.286318 58.097 24.7376
1.295639 58.238 24.4466
1.305027 58.379 24.1539
1.314484 58.521 23.8594
1.324009 58.662 23.5629
1.333604 58.803 23.2643
1.343268 58.945 22.9633
1.353002 59.087 22.6598
1.362806 59.229 22.3536
1.372681 59.371 22.0444
1.382628 59.514 21.7322
1.392647 59.656 21.4168
1.402739 59.799 21.0980
1.412904 59.943 20.7757
1.423142 60.086 20.4501
1.433455 60.230 20.1211
1.443843 60.374 19.7891
1.454305 60.519 19.4546
1.464844 60.663 19.1184
1.475459 60.808 18.7813
1.486150 60.952 18.4443
1.496920 61.097 18.1079
1.507767 61.241 17.7726
1.518693 61.385 17.4385
1.529698 61.529 17.1055
1.540783 61.673 16.7734
1.551948 61.817 16.4420
1.563194 61.960 16.1109
1.574521 62.103 15.7799
1.585931 62.246 15.4486
1.597423 62.389 15.1167
1.608999 62.532 14.7837
1.620658 62.675 14.4495
1.632402 62.818 14.1135
1.644232 62.960 13.7755
1.656146 63.102 13.4351
1.668147 63.245 13.0920
1.680235 63.387 12.7458
1.692411 63.529 12.3963
1.704675 63.671 12.0430
1.717028 63.814 11.6857
1.729470 63.956 11.3240
1.742003 64.098 10.9576
1.754626 64.240 10.5863
1.767341 64.383 10.2098
1.780147 64.525 9.8279
1.793047 64.668 9.4406
1.806040 64.810 9.0480
1.819128 64.953 8.6505
1.832310 65.095 8.2485
1.845587 65.238 7.8427
1.858961 65.380 7.4340
1.872432 65.522 7.0230
1.886001 65.663 6.6100
1.899667 65.805 6.1955
1.913433 65.945 5.7795
1.927299 66.086 5.3622
1.941265 66.226 4.9436
1.955332 66.366 4.5235
1.969501 66.505 4.1020
1.983773 66.645 3.6790
1.998148 66.783 3.2544
2.012627 66.922 2.8279
2.027212 67.060 2.3995
2.041902 67.199 1.9691
2.056698 67.336 1.5364
2.071602 67.474 1.1012
2.086614 67.612 0.6634
2.101734 67.749 0.2228
2.116964 67.886 -0.2208
2.132304 68.023 -0.6677
2.147756 68.160 -1.1180
2.163320 68.297 -1.5717
2.178996 68.434 -2.0290
2.194786 68.570 -2.4898
2.210690 68.706 -2.9538
2.226710 68.842 -3.4208
2.242845 68.977 -3.8906
2.259098 69.112 -4.3628
2.275468 69.247 -4.8372
2.291957 69.380 -5.3136
2.308566 69.514 -5.7919
2.325295 69.646 -6.2719
2.342145 69.779 -6.7536
2.359117 69.911 -7.2368
2.376212 70.042 -7.7216
2.393431 70.173 -8.2079
2.410775 70.304 -8.6958
2.428244 70.434 -9.1853
2.445840 70.564 -9.6765
2.463564 70.693 -10.1693
2.481416 70.823 -10.6641
2.499397 70.952 -11.1608
2.517509 71.080 -11.6597
2.535752 71.209 -12.1609
2.554127 71.337 -12.6647
2.572635 71.465 -13.1711
2.591277 71.592 -13.6804
2.610055 71.718 -14.1924
2.628968 71.844 -14.7072
2.648019 71.969 -15.2244
2.667208 72.094 -15.7439
2.686535 72.218 -16.2655
2.706003 72.342 -16.7888
2.725612 72.464 -17.3137
2.745363 72.587 -17.8399
2.765257 72.708 -18.3672
2.785295 72.830 -18.8956
2.805478 72.951 -19.4247
2.825808 73.071 -19.9546
2.846285 73.191 -20.4853
2.866910 73.311 -21.0168
2.887685 73.430 -21.5491
2.908611 73.548 -22.0827
2.929688 73.667 -22.6177
2.950917 73.784 -23.1545
2.972301 73.902 -23.6935
2.993839 74.018 -24.2346
3.015534 74.134 -24.7779
3.037386 74.249 -25.3231
3.059396 74.363 -25.8700
3.081565 74.477 -26.4183
3.103896 74.590 -26.9676
3.126388 74.702 -27.5176
3.149043 74.814 -28.0680
3.171862 74.926 -28.6184
3.194847 75.037 -29.1688
3.217998 75.147 -29.7189
3.241317 75.257 -30.2687
3.264805 75.367 -30.8183
3.288463 75.476 -31.3681
3.312293 75.584 -31.9184
3.336295 75.692 -32.4695
3.360471 75.800 -33.0217
3.384822 75.906 -33.5751
3.409350 76.012 -34.1296
3.434056 76.118 -34.6850
3.458940 76.222 -35.2411
3.484005 76.327 -35.7975
3.509252 76.430 -36.3539
3.534681 76.533 -36.9100
3.560295 76.636 -37.4656
3.586094 76.738 -38.0205
3.612081 76.840 -38.5747
3.638255 76.941 -39.1282
3.664620 77.042 -39.6814
3.691175 77.143 -40.2345
3.717923 77.243 -40.7878
3.744864 77.342 -41.3415
3.772001 77.441 -41.8957
3.799335 77.539 -42.4502
3.826866 77.636 -43.0050
3.854597 77.733 -43.5597
3.882529 77.830 -44.1143
3.910664 77.926 -44.6684
3.939002 78.022 -45.2218
3.967546 78.118 -45.7746
3.996296 78.213 -46.3267
4.025255 78.308 -46.8782
4.054423 78.402 -47.4294
4.083804 78.496 -47.9804
4.113396 78.590 -48.5315
4.143204 78.683 -49.0827
4.173227 78.775 -49.6342
4.203468 78.868 -50.1857
4.233928 78.959 -50.7373
4.264609 79.051 -51.2888
4.295512 79.142 -51.8403
4.326639 79.233 -52.3916
4.357992 79.323 -52.9429
4.389572 79.413 -53.4941
4.421380 79.503 -54.0456
4.453419 79.592 -54.5974
4.485691 79.681 -55.1497
4.518196 79.770 -55.7026
4.550936 79.858 -56.2560
4.583914 79.946 -56.8099
4.617131 80.034 -57.3643
4.650589 80.121 -57.9192
4.684289 80.208 -58.4746
4.718233 80.294 -59.0306
4.752424 80.380 -59.5873
4.786862 80.466 -60.1448
4.821549 80.551 -60.7034
4.856488 80.636 -61.2630
4.891680 80.720 -61.8237
4.927127 80.804 -62.3855
4.962831 80.887 -62.9482
4.998794 80.970 -63.5118
5.035017 81.053 -64.0761
5.071503 81.135 -64.6413
5.108253 81.216 -65.2075
5.145270 81.297 -65.7748
5.182555 81.378 -66.3433
5.220110 81.458 -66.9133
5.257937 81.537 -67.4845
5.296038 81.616 -68.0568
5.334415 81.694 -68.6300
5.373071 81.772 -69.2039
5.412006 81.848 -69.7782
5.451224 81.925 -70.3530
5.490725 82.000 -70.9284
5.530514 82.075 -71.5044
5.570590 82.150 -72.0812
5.610957 82.223 -72.6587
5.651616 82.296 -73.2369
5.692570 82.368 -73.8153
5.733821 82.439 -74.3935
5.775370 82.510 -74.9713
5.817221 82.580 -75.5485
5.859375 82.649 -76.1250
5.901834 82.718 -76.7009
5.944602 82.785 -77.2764
5.987679 82.852 -77.8514
6.031068 82.918 -78.4256
6.074771 82.984 -78.9988
6.118792 83.049 -79.5704
6.163131 83.113 -80.1404
6.207792 83.176 -80.7083
6.252776 83.239 -81.2743
6.298086 83.301 -81.8383
6.343725 83.362 -82.4005
6.389694 83.423 -82.9608
6.435996 83.483 -83.5189
6.482634 83.543 -84.0747
6.529610 83.602 -84.6279
6.576926 83.660 -85.1784
6.624585 83.718 -85.7261
6.672590 83.776 -86.2712
6.720942 83.833 -86.8138
6.769645 83.890 -87.3538
6.818700 83.947 -87.8914
6.868111 84.003 -88.4266
6.917881 84.059 -88.9593
6.968010 84.114 -89.4897
7.018504 84.170 -90.0177
7.069362 84.225 -90.5436
7.120590 84.280 -91.0675
7.172189 84.335 -91.5898
7.224161 84.390 -92.1106
7.276511 84.444 -92.6301
7.329239 84.499 -93.1486
7.382350 84.553 -93.6662
7.435845 84.608 -94.1830
7.489729 84.662 -94.6994
7.544002 84.716 -95.2156
7.598669 84.770 -95.7319
7.653732 84.824 -96.2485
7.709194 84.878 -96.7658
7.765058 84.931 -97.2839
7.821327 84.985 -97.8028
7.878004 85.038 -98.3229
7.935091 85.091 -98.8441
7.992592 85.144 -99.3668
8.050510 85.196 -99.8910
8.108847 85.248 -100.4168
8.167607 85.299 -100.9443
8.226793 85.350 -101.4734
8.286408 85.401 -102.0041
8.346454 85.451 -102.5363
8.406936 85.501 -103.0699
8.467856 85.549 -103.6048
8.529218 85.597 -104.1409
8.591024 85.645 -104.6780
8.653278 85.691 -105.2159
8.715983 85.737 -105.7542
8.779143 85.783 -106.2927
8.842760 85.827 -106.8310
8.906839 85.870 -107.3691
8.971381 85.913 -107.9066
9.036392 85.955 -108.4430
9.101873 85.996 -108.9781
9.167829 86.036 -109.5115
9.234263 86.076 -110.0429
9.301178 86.114 -110.5722
9.368578 86.152 -111.0989
9.436467 86.190 -111.6230
9.504847 86.226 -112.1439
9.573723 86.262 -112.6617
9.643099 86.298 -113.1761
9.712976 86.333 -113.6871
9.783361 86.367 -114.1946
9.854255 86.401 -114.6986
9.925663 86.435 -115.1990
9.997588 86.469 -115.6960
10.070035 86.502 -116.1896
10.143007 86.535 -116.6800
10.216507 86.568 -117.1675
10.290540 86.601 -117.6522
10.365109 86.634 -118.1344
10.440219 86.667 -118.6145
10.515873 86.700 -119.0927
10.592076 86.733 -119.5695
10.668830 86.766 -120.0452
10.746141 86.799 -120.5202
10.824012 86.832 -120.9948
10.902447 86.865 -121.4694
10.981451 86.898 -121.9445
11.061027 86.931 -122.4202
11.141180 86.963 -122.8970
11.221913 86.996 -123.3751
11.303232 87.029 -123.8546
11.385140 87.061 -124.3359
11.467641 87.093 -124.8191
11.550741 87.125 -125.3042
11.634442 87.157 -125.7912
11.718750 87.188 -126.2801
11.803669 87.218 -126.7708
11.889203 87.248 -127.2632
11.975357 87.277 -127.7571
12.062136 87.306 -128.2521
12.149543 87.333 -128.7481
12.237583 87.360 -129.2447
12.326262 87.387 -129.7415
12.415583 87.412 -130.2381
12.505552 87.437 -130.7341
12.596172 87.461 -131.2292
12.687449 87.484 -131.7230
12.779387 87.506 -132.2150
12.871992 87.528 -132.7051
12.965268 87.549 -133.1928
13.059220 87.569 -133.6779
13.153852 87.589 -134.1603
13.249170 87.609 -134.6399
13.345179 87.627 -135.1166
13.441884 87.646 -135.5905
13.539289 87.664 -136.0616
13.637401 87.682 -136.5301
13.736223 87.700 -136.9962
13.835761 87.717 -137.4603
13.936021 87.734 -137.9226
14.037007 87.752 -138.3835
14.138725 87.769 -138.8433
14.241180 87.785 -139.3024
14.344377 87.802 -139.7611
14.448323 87.819 -140.2197
14.553021 87.835 -140.6783
14.658478 87.851 -141.1373
14.764700 87.866 -141.5967
14.871691 87.881 -142.0564
14.979457 87.896 -142.5164
15.088005 87.910 -142.9766
15.197339 87.924 -143.4368
15.307465 87.937 -143.8965
15.418389 87.949 -144.3556
15.530117 87.961 -144.8137
15.642655 87.972 -145.2703
15.756008 87.982 -145.7251
15.870182 87.992 -146.1777
15.985184 88.001 -146.6279
16.101019 88.010 -147.0755
16.217694 88.018 -147.5202
16.335214 88.026 -147.9620
16.453586 88.034 -148.4009
16.572815 88.041 -148.8371
16.692909 88.048 -149.2706
16.813872 88.055 -149.7016
16.935713 88.061 -150.1304
17.058436 88.068 -150.5571
17.182048 88.074 -150.9818
17.306556 88.079 -151.4048
17.431967 88.085 -151.8260
17.558286 88.090 -152.2454
17.685521 88.095 -152.6629
17.813677 88.099 -153.0781
17.942762 88.103 -153.4910
18.072783 88.107 -153.9012
18.203746 88.111 -154.3087
18.335658 88.114 -154.7133
18.468526 88.117 -155.1152
18.602356 88.121 -155.5147
18.737156 88.124 -155.9122
18.872934 88.127 -156.3085
19.009695 88.131 -156.7044
19.147447 88.135 -157.1009
19.286197 88.138 -157.4990
19.425953 88.142 -157.8995
19.566721 88.145 -158.3028
19.708510 88.147 -158.7091
19.851326 88.149 -159.1179
19.995177 88.149 -159.5281
20.140070 88.148 -159.9382
20.286013 88.145 -160.3457
20.433014 88.141 -160.7482
20.581080 88.135 -161.1427
20.730219 88.129 -161.5267
20.880439 88.121 -161.8978
21.031747 88.113 -162.2546
21.184152 88.105 -162.5971
21.337661 88.099 -162.9263
21.492282 88.095 -163.2449
21.648024 88.092 -163.5570
21.804895 88.093 -163.8679
21.962902 88.096 -164.1836
22.122054 88.102 -164.5102
22.282360 88.110 -164.8530
22.443827 88.118 -165.2163
22.606464 88.127 -165.6022
22.770280 88.134 -166.0108
22.935283 88.139 -166.4398
23.101481 88.141 -166.8843
23.268884 88.138 -167.3379
23.437500 88.131 -167.7929
23.607338 88.120 -168.2414
23.778406 88.105 -168.6759
23.950714 88.087 -169.0907
24.124271 88.068 -169.4821
24.299086 88.048 -169.8493
24.475167 88.029 -170.1944
24.652524 88.012 -170.5219
24.831166 87.998 -170.8382
25.011103 87.986 -171.1509
25.192344 87.977 -171.4670
25.374898 87.970 -171.7924
25.558775 87.964 -172.1308
25.743984 87.958 -172.4832
25.930536 87.950 -172.8482
26.118439 87.941 -173.2220
26.307704 87.930 -173.5994
26.498341 87.916 -173.9750
26.690359 87.900 -174.3435
26.883768 87.883 -174.7015
27.078579 87.865 -175.0472
27.274801 87.848 -175.3812
27.472446 87.831 -175.7058
27.671522 87.815 -176.0245
27.872042 87.801 -176.3415
28.074014 87.787 -176.6603
28.277450 87.774 -176.9834
28.482360 87.761 -177.3117
28.688755 87.747 -177.6447
28.896645 87.733 -177.9804
29.106042 87.717 -178.3163
29.316957 87.701 -178.6497
29.529400 87.683 -178.9788
29.743382 87.665 -179.3027
29.958915 87.647 -179.6215
30.176009 87.629 -179.9363
30.394677 87.611 179.7513
30.614929 87.594 179.4399
30.836778 87.576 179.1285
31.060234 87.558 178.8170
31.285309 87.539 178.5061
31.512015 87.520 178.1970
31.740364 87.500 177.8908
31.970368 87.480 177.5885
32.202039 87.460 177.2903
32.435388 87.440 176.9958
32.670428 87.420 176.7039
32.907171 87.400 176.4138
33.145630 87.380 176.1249
33.385817 87.360 175.8372
33.627745 87.340 175.5516
33.871425 87.319 175.2690
34.116871 87.298 174.9907
34.364096 87.277 174.7169
34.613113 87.257 174.4471
34.863934 87.237 174.1797
35.116572 87.217 173.9129
35.371041 87.198 173.6448
35.627354 87.179 173.3744
35.885525 87.159 173.1021
36.145566 87.138 172.8293
36.407492 87.117 172.5583
36.671316 87.095 172.2915
36.937051 87.072 172.0302
37.204712 87.049 171.7746
37.474313 87.026 171.5234
37.745867 87.004 171.2744
38.019389 86.982 171.0249
38.294893 86.959 170.7730
38.572394 86.937 170.5174
38.851905 86.914 170.2583
39.133442 86.890 169.9969
39.417019 86.865 169.7349
39.702651 86.838 169.4741
39.990353 86.811 169.2162
40.280140 86.783 168.9622
40.572026 86.754 168.7124
40.866028 86.725 168.4667
41.162160 86.696 168.2245
41.460438 86.667 167.9846
41.760877 86.638 167.7462
42.063494 86.609 167.5084
42.368303 86.581 167.2706
42.675322 86.552 167.0327
42.984565 86.524 166.7948
43.296048 86.496 166.5568
43.609789 86.468 166.3190
43.925804 86.440 166.0812
44.244108 86.412 165.8438
44.564719 86.383 165.6077
44.887654 86.355 165.3741
45.212928 86.326 165.1452
45.540560 86.297 164.9225
45.870565 86.268 164.7070
46.202962 86.239 164.4983
46.537768 86.211 164.2950
46.875000 86.184 164.0951
47.214676 86.158 163.8965
47.556813 86.131 163.6979
47.901429 86.105 163.4990
48.248542 86.078 163.2997
48.598171 86.050 163.1004
48.950334 86.022 162.9017
49.305048 85.993 162.7048
49.662333 85.962 162.5116
50.022206 85.931 162.3245
50.384688 85.899 162.1454
50.749796 85.867 161.9739
51.117550 85.835 161.8070
51.487969 85.804 161.6393
51.861072 85.774 161.4658
52.236879 85.744 161.2838
52.615409 85.712 161.0945
52.996681 85.679 160.9027
53.380717 85.644 160.7139
53.767536 85.609 160.5319
54.157158 85.573 160.3572
54.549603 85.538 160.1877
54.944892 85.504 160.0201
55.343045 85.471 159.8524
55.744084 85.438 159.6837
56.148028 85.405 159.5146
56.554900 85.372 159.3462
56.964720 85.339 159.1797
57.377510 85.306 159.0169
57.793291 85.273 158.8601
58.212085 85.239 158.7112
58.633914 85.206 158.5710
59.058799 85.172 158.4391
59.486764 85.140 158.3138
59.917829 85.107 158.1929
60.352019 85.075 158.0739
60.789354 85.043 157.9537
61.229859 85.011 157.8294
61.673556 84.978 157.6990
62.120468 84.944 157.5633
62.570618 84.908 157.4249
63.024031 84.871 157.2864
63.480729 84.833 157.1488
63.940736 84.794 157.0105
64.404077 84.756 156.8690
64.870776 84.718 156.7217
65.340856 84.681 156.5665
65.814343 84.644 156.4009
66.291261 84.607 156.2247
66.771635 84.569 156.0422
67.255489 84.531 155.8631
67.742850 84.493 155.6982
68.233743 84.455 155.5540
68.728193 84.421 155.4285
69.226226 84.390 155.3137
69.727867 84.363 155.1998
70.233144 84.337 155.0821
70.742083 84.310 154.9629
71.254709 84.282 154.8506
71.771050 84.252 154.7548
72.291132 84.221 154.6800
72.814984 84.189 154.6229
73.342631 84.159 154.5745
73.874102 84.128 154.5255
74.409424 84.096 154.4707
74.948626 84.063 154.4096
75.491734 84.028 154.3436
76.038779 83.991 154.2742
76.589787 83.954 154.2019
77.144788 83.917 154.1260
77.703811 83.879 154.0461
78.266885 83.842 153.9628
78.834039 83.805 153.8780
79.405303 83.769 153.7933
79.980706 83.734 153.7097
80.560280 83.699 153.6276
81.144053 83.664 153.5483
81.732056 83.630 153.4728
82.324320 83.596 153.4018
82.920876 83.562 153.3348
83.521755 83.529 153.2704
84.126988 83.495 153.2063
84.736607 83.462 153.1401
85.350643 83.428 153.0707
85.969129 83.394 152.9987
86.592097 83.359 152.9248
87.219579 83.324 152.8512
87.851608 83.288 152.7812
88.488217 83.252 152.7187
89.129439 83.216 152.6655
89.775308 83.181 152.6195
90.425856 83.146 152.5767
91.081119 83.112 152.5342
91.741131 83.077 152.4911
92.405925 83.042 152.4479
93.075536 83.006 152.4040
93.750000 82.970 152.3583
94.429351 82.933 152.3100
95.113625 82.896 152.2583
95.802858 82.860 152.2035
