* Measurement data measured by REW V5.31.3
* Source: Headset (CX31993 HIFI AUDIO), MICROPHONE (Master Volume), R, volume: 0.400
* Format: 256k Log Swept Sine, 1 sweep at -11.9 dBFS with no timing reference
* Dated: 05 26, 25 6:02:53 PM
* REW Settings:
*  C-weighting compensation: Off
*  Target level: 75.0 dB
* Note: ; 
* Measurement: Final A5000 500 R
* Smoothing: 1/12 octave
* Frequency Step: 96 ppo
* Start Frequency: 0.36621094 Hz
*
* Freq(Hz) SPL(dB) Phase(degrees)
0.366211 34.384 -44.6936
0.368865 34.384 -44.6285
0.371538 34.383 -44.5327
0.374230 34.381 -44.4152
0.376942 34.380 -44.2838
0.379673 34.379 -44.1445
0.382424 34.377 -44.0009
0.385196 34.376 -43.8554
0.387987 34.374 -43.7093
0.390798 34.373 -43.5632
0.393630 34.371 -43.4174
0.396483 34.369 -43.2721
0.399356 34.368 -43.1272
0.402250 34.366 -42.9827
0.405165 34.365 -42.8384
0.408101 34.363 -42.6941
0.411058 34.361 -42.5498
0.414037 34.360 -42.4052
0.417037 34.358 -42.2602
0.420059 34.356 -42.1145
0.423103 34.355 -41.9680
0.426169 34.353 -41.8205
0.429257 34.351 -41.6717
0.432368 34.350 -41.5214
0.435501 34.348 -41.3693
0.438656 34.346 -41.2153
0.441835 34.344 -41.0589
0.445037 34.342 -40.9001
0.448262 34.341 -40.7384
0.451510 34.339 -40.5735
0.454782 34.337 -40.4052
0.458077 34.335 -40.2331
0.461397 34.333 -40.0568
0.464740 34.331 -39.8760
0.468108 34.330 -39.6903
0.471500 34.328 -39.4992
0.474917 34.326 -39.3024
0.478358 34.324 -39.0994
0.481825 34.322 -38.8898
0.485316 34.320 -38.6731
0.488833 34.318 -38.4487
0.492375 34.316 -38.2162
0.495943 34.314 -37.9750
0.499537 34.312 -37.7246
0.503157 34.310 -37.4643
0.506803 34.308 -37.1935
0.510475 34.306 -36.9117
0.514175 34.304 -36.6182
0.517900 34.302 -36.3122
0.521653 34.300 -35.9931
0.525434 34.298 -35.6601
0.529241 34.296 -35.3126
0.533076 34.293 -34.9497
0.536939 34.291 -34.5706
0.540830 34.289 -34.1746
0.544749 34.287 -33.7608
0.548696 34.285 -33.3284
0.552673 34.283 -32.8765
0.556677 34.280 -32.4043
0.560711 34.278 -31.9109
0.564774 34.276 -31.3954
0.568867 34.274 -30.8571
0.572989 34.271 -30.2950
0.577141 34.269 -29.7084
0.581324 34.267 -29.0964
0.585536 34.264 -28.4583
0.589779 34.262 -27.7933
0.594053 34.260 -27.1008
0.598358 34.257 -26.3802
0.602694 34.255 -25.6309
0.607061 34.252 -24.8526
0.611460 34.250 -24.0449
0.615891 34.247 -23.2076
0.620354 34.245 -22.3406
0.624849 34.242 -21.4440
0.629377 34.240 -20.5180
0.633938 34.237 -19.5631
0.638532 34.235 -18.5798
0.643159 34.232 -17.5689
0.647819 34.230 -16.5315
0.652514 34.227 -15.4687
0.657242 34.224 -14.3819
0.662005 34.222 -13.2729
0.666802 34.219 -12.1435
0.671634 34.216 -10.9957
0.676501 34.214 -9.8318
0.681403 34.211 -8.6543
0.686341 34.209 -7.4657
0.691314 34.206 -6.2687
0.696324 34.205 -5.0662
0.701370 34.204 -3.8611
0.706452 34.205 -2.6561
0.711571 34.209 -1.4543
0.716728 34.218 -0.2581
0.721921 34.235 0.9298
0.727153 34.263 2.1074
0.732422 34.307 3.2732
0.737729 34.369 4.4261
0.743075 34.448 5.5652
0.748460 34.542 6.6899
0.753883 34.648 7.7997
0.759346 34.765 8.8936
0.764849 34.890 9.9709
0.770391 35.023 11.0307
0.775974 35.164 12.0719
0.781597 35.312 13.0937
0.787261 35.466 14.0951
0.792966 35.627 15.0752
0.798712 35.794 16.0332
0.804500 35.968 16.9684
0.810329 36.148 17.8800
0.816201 36.334 18.7673
0.822116 36.526 19.6299
0.828073 36.723 20.4672
0.834074 36.927 21.2788
0.840118 37.137 22.0643
0.846206 37.352 22.8233
0.852338 37.572 23.5557
0.858514 37.797 24.2613
0.864735 38.028 24.9399
0.871001 38.263 25.5913
0.877313 38.504 26.2157
0.883670 38.748 26.8130
0.890074 38.997 27.3832
0.896524 39.250 27.9264
0.903020 39.507 28.4427
0.909564 39.768 28.9324
0.916155 40.032 29.3955
0.922794 40.299 29.8323
0.929481 40.569 30.2430
0.936216 40.841 30.6278
0.943000 41.116 30.9870
0.949834 41.392 31.3210
0.956717 41.670 31.6299
0.963649 41.950 31.9141
0.970632 42.230 32.1740
0.977666 42.511 32.4097
0.984750 42.792 32.6218
0.991886 43.073 32.8104
0.999074 43.353 32.9759
1.006314 43.632 33.1188
1.013606 43.909 33.2393
1.020951 44.184 33.3378
1.028349 44.457 33.4147
1.035801 44.727 33.4704
1.043307 44.994 33.5053
1.050867 45.256 33.5199
1.058482 45.514 33.5149
1.066152 45.768 33.4912
1.073878 46.017 33.4498
1.081660 46.260 33.3925
1.089498 46.499 33.3215
1.097393 46.734 33.2395
1.105345 46.964 33.1499
1.113355 47.193 33.0555
1.121423 47.418 32.9589
1.129549 47.643 32.8615
1.137734 47.865 32.7640
1.145979 48.087 32.6666
1.154283 48.308 32.5692
1.162647 48.527 32.4714
1.171072 48.746 32.3726
1.179558 48.963 32.2724
1.188106 49.180 32.1702
1.196715 49.396 32.0655
1.205387 49.611 31.9578
1.214122 49.825 31.8467
1.222920 50.038 31.7315
1.231782 50.250 31.6120
1.240708 50.462 31.4876
1.249699 50.673 31.3581
1.258754 50.883 31.2229
1.267876 51.092 31.0817
1.277063 51.300 30.9342
1.286318 51.508 30.7801
1.295639 51.715 30.6190
1.305027 51.922 30.4506
1.314484 52.128 30.2745
1.324009 52.333 30.0906
1.333604 52.538 29.8986
1.343268 52.742 29.6980
1.353002 52.946 29.4888
1.362806 53.150 29.2705
1.372681 53.353 29.0431
1.382628 53.556 28.8062
1.392647 53.758 28.5596
1.402739 53.961 28.3033
1.412904 54.163 28.0371
1.423142 54.365 27.7613
1.433455 54.567 27.4760
1.443843 54.769 27.1820
1.454305 54.970 26.8804
1.464844 55.171 26.5727
1.475459 55.370 26.2608
1.486150 55.569 25.9463
1.496920 55.766 25.6306
1.507767 55.961 25.3146
1.518693 56.156 24.9987
1.529698 56.348 24.6829
1.540783 56.539 24.3670
1.551948 56.729 24.0509
1.563194 56.917 23.7341
1.574521 57.103 23.4163
1.585931 57.288 23.0970
1.597423 57.472 22.7758
1.608999 57.655 22.4523
1.620658 57.836 22.1261
1.632402 58.016 21.7968
1.644232 58.195 21.4639
1.656146 58.373 21.1271
1.668147 58.551 20.7859
1.680235 58.727 20.4400
1.692411 58.903 20.0889
1.704675 59.078 19.7324
1.717028 59.253 19.3700
1.729470 59.428 19.0013
1.742003 59.602 18.6260
1.754626 59.776 18.2438
1.767341 59.949 17.8544
1.780147 60.123 17.4576
1.793047 60.297 17.0535
1.806040 60.471 16.6421
1.819128 60.644 16.2238
1.832310 60.817 15.7994
1.845587 60.990 15.3697
1.858961 61.162 14.9357
1.872432 61.333 14.4984
1.886001 61.503 14.0583
1.899667 61.671 13.6159
1.913433 61.839 13.1716
1.927299 62.005 12.7256
1.941265 62.170 12.2779
1.955332 62.334 11.8287
1.969501 62.496 11.3780
1.983773 62.658 10.9258
1.998148 62.819 10.4720
2.012627 62.979 10.0165
2.027212 63.138 9.5592
2.041902 63.296 9.1000
2.056698 63.454 8.6387
2.071602 63.611 8.1752
2.086614 63.767 7.7092
2.101734 63.923 7.2406
2.116964 64.078 6.7690
2.132304 64.233 6.2942
2.147756 64.388 5.8161
2.163320 64.542 5.3343
2.178996 64.696 4.8487
2.194786 64.849 4.3591
2.210690 65.002 3.8657
2.226710 65.153 3.3684
2.242845 65.304 2.8676
2.259098 65.454 2.3636
2.275468 65.602 1.8568
2.291957 65.750 1.3475
2.308566 65.896 0.8361
2.325295 66.041 0.3228
2.342145 66.186 -0.1919
2.359117 66.329 -0.7079
2.376212 66.471 -1.2250
2.393431 66.613 -1.7428
2.410775 66.753 -2.2614
2.428244 66.893 -2.7805
2.445840 67.032 -3.3001
2.463564 67.171 -3.8202
2.481416 67.309 -4.3409
2.499397 67.446 -4.8622
2.517509 67.583 -5.3843
2.535752 67.719 -5.9077
2.554127 67.855 -6.4326
2.572635 67.990 -6.9597
2.591277 68.124 -7.4892
2.610055 68.257 -8.0214
2.628968 68.388 -8.5564
2.648019 68.519 -9.0940
2.667208 68.649 -9.6337
2.686535 68.778 -10.1752
2.706003 68.905 -10.7181
2.725612 69.032 -11.2618
2.745363 69.158 -11.8059
2.765257 69.283 -12.3499
2.785295 69.407 -12.8935
2.805478 69.530 -13.4363
2.825808 69.653 -13.9779
2.846285 69.775 -14.5183
2.866910 69.896 -15.0572
2.887685 70.017 -15.5949
2.908611 70.137 -16.1317
2.929688 70.257 -16.6679
2.950917 70.375 -17.2043
2.972301 70.493 -17.7414
2.993839 70.610 -18.2795
3.015534 70.726 -18.8187
3.037386 70.840 -19.3588
3.059396 70.954 -19.8996
3.081565 71.067 -20.4405
3.103896 71.179 -20.9811
3.126388 71.290 -21.5210
3.149043 71.401 -22.0597
3.171862 71.511 -22.5967
3.194847 71.620 -23.1316
3.217998 71.729 -23.6643
3.241317 71.837 -24.1944
3.264805 71.945 -24.7221
3.288463 72.052 -25.2477
3.312293 72.159 -25.7715
3.336295 72.264 -26.2941
3.360471 72.370 -26.8159
3.384822 72.474 -27.3371
3.409350 72.577 -27.8577
3.434056 72.680 -28.3777
3.458940 72.782 -28.8967
3.484005 72.884 -29.4146
3.509252 72.985 -29.9310
3.534681 73.085 -30.4455
3.560295 73.185 -30.9580
3.586094 73.285 -31.4682
3.612081 73.384 -31.9759
3.638255 73.484 -32.4811
3.664620 73.582 -32.9840
3.691175 73.681 -33.4848
3.717923 73.779 -33.9838
3.744864 73.876 -34.4812
3.772001 73.974 -34.9773
3.799335 74.070 -35.4721
3.826866 74.166 -35.9659
3.854597 74.262 -36.4585
3.882529 74.358 -36.9501
3.910664 74.453 -37.4406
3.939002 74.548 -37.9300
3.967546 74.643 -38.4183
3.996296 74.738 -38.9056
4.025255 74.833 -39.3917
4.054423 74.928 -39.8768
4.083804 75.023 -40.3610
4.113396 75.117 -40.8445
4.143204 75.211 -41.3273
4.173227 75.305 -41.8098
4.203468 75.399 -42.2921
4.233928 75.493 -42.7746
4.264609 75.586 -43.2574
4.295512 75.679 -43.7409
4.326639 75.773 -44.2251
4.357992 75.866 -44.7103
4.389572 75.959 -45.1965
4.421380 76.052 -45.6838
4.453419 76.145 -46.1723
4.485691 76.237 -46.6618
4.518196 76.330 -47.1526
4.550936 76.422 -47.6447
4.583914 76.514 -48.1383
4.617131 76.606 -48.6336
4.650589 76.698 -49.1308
4.684289 76.789 -49.6301
4.718233 76.880 -50.1318
4.752424 76.971 -50.6360
4.786862 77.061 -51.1429
4.821549 77.151 -51.6526
4.856488 77.241 -52.1649
4.891680 77.330 -52.6798
4.927127 77.419 -53.1972
4.962831 77.508 -53.7169
4.998794 77.596 -54.2388
5.035017 77.683 -54.7628
5.071503 77.770 -55.2891
5.108253 77.856 -55.8177
5.145270 77.941 -56.3489
5.182555 78.026 -56.8828
5.220110 78.110 -57.4194
5.257937 78.194 -57.9584
5.296038 78.276 -58.4995
5.334415 78.358 -59.0423
5.373071 78.440 -59.5861
5.412006 78.520 -60.1308
5.451224 78.600 -60.6761
5.490725 78.678 -61.2221
5.530514 78.756 -61.7689
5.570590 78.833 -62.3165
5.610957 78.909 -62.8650
5.651616 78.984 -63.4138
5.692570 79.059 -63.9626
5.733821 79.132 -64.5106
5.775370 79.205 -65.0573
5.817221 79.277 -65.6024
5.859375 79.348 -66.1457
5.901834 79.418 -66.6872
5.944602 79.488 -67.2270
5.987679 79.556 -67.7651
6.031068 79.624 -68.3012
6.074771 79.691 -68.8350
6.118792 79.758 -69.3660
6.163131 79.824 -69.8938
6.207792 79.889 -70.4181
6.252776 79.954 -70.9388
6.298086 80.019 -71.4561
6.343725 80.083 -71.9700
6.389694 80.147 -72.4807
6.435996 80.210 -72.9881
6.482634 80.273 -73.4922
6.529610 80.336 -73.9930
6.576926 80.399 -74.4903
6.624585 80.462 -74.9843
6.672590 80.525 -75.4751
6.720942 80.588 -75.9628
6.769645 80.651 -76.4480
6.818700 80.713 -76.9309
6.868111 80.776 -77.4118
6.917881 80.840 -77.8912
6.968010 80.903 -78.3691
7.018504 80.967 -78.8457
7.069362 81.031 -79.3214
7.120590 81.095 -79.7965
7.172189 81.159 -80.2715
7.224161 81.224 -80.7467
7.276511 81.289 -81.2228
7.329239 81.354 -81.6999
7.382350 81.419 -82.1783
7.435845 81.484 -82.6583
7.489729 81.549 -83.1400
7.544002 81.615 -83.6236
7.598669 81.680 -84.1095
7.653732 81.746 -84.5979
7.709194 81.811 -85.0890
7.765058 81.876 -85.5828
7.821327 81.941 -86.0795
7.878004 82.006 -86.5789
7.935091 82.071 -87.0810
7.992592 82.135 -87.5856
8.050510 82.199 -88.0928
8.108847 82.262 -88.6025
8.167607 82.325 -89.1145
8.226793 82.387 -89.6288
8.286408 82.449 -90.1449
8.346454 82.511 -90.6626
8.406936 82.571 -91.1815
8.467856 82.631 -91.7016
8.529218 82.691 -92.2227
8.591024 82.750 -92.7444
8.653278 82.808 -93.2666
8.715983 82.865 -93.7888
8.779143 82.922 -94.3109
8.842760 82.979 -94.8326
8.906839 83.034 -95.3537
8.971381 83.090 -95.8742
9.036392 83.144 -96.3939
9.101873 83.198 -96.9125
9.167829 83.252 -97.4300
9.234263 83.305 -97.9461
9.301178 83.357 -98.4610
9.368578 83.409 -98.9745
9.436467 83.461 -99.4865
9.504847 83.512 -99.9971
9.573723 83.562 -100.5061
9.643099 83.613 -101.0135
9.712976 83.662 -101.5194
9.783361 83.712 -102.0236
9.854255 83.761 -102.5262
9.925663 83.809 -103.0270
9.997588 83.857 -103.5262
10.070035 83.905 -104.0236
10.143007 83.952 -104.5192
10.216507 83.999 -105.0130
10.290540 84.046 -105.5049
10.365109 84.092 -105.9951
10.440219 84.139 -106.4834
10.515873 84.184 -106.9700
10.592076 84.230 -107.4548
10.668830 84.275 -107.9381
10.746141 84.320 -108.4199
10.824012 84.365 -108.9004
10.902447 84.410 -109.3798
10.981451 84.454 -109.8584
11.061027 84.499 -110.3365
11.141180 84.543 -110.8143
11.221913 84.587 -111.2921
11.303232 84.631 -111.7703
11.385140 84.674 -112.2492
11.467641 84.718 -112.7291
11.550741 84.761 -113.2101
11.634442 84.803 -113.6925
11.718750 84.846 -114.1764
11.803669 84.887 -114.6618
11.889203 84.928 -115.1487
11.975357 84.969 -115.6369
12.062136 85.008 -116.1260
12.149543 85.047 -116.6158
12.237583 85.085 -117.1058
12.326262 85.121 -117.5955
12.415583 85.157 -118.0841
12.505552 85.192 -118.5711
12.596172 85.226 -119.0558
12.687449 85.259 -119.5377
12.779387 85.292 -120.0160
12.871992 85.323 -120.4903
12.965268 85.354 -120.9602
13.059220 85.384 -121.4256
13.153852 85.415 -121.8864
13.249170 85.444 -122.3428
13.345179 85.474 -122.7950
13.441884 85.504 -123.2437
13.539289 85.534 -123.6896
13.637401 85.565 -124.1335
13.736223 85.595 -124.5765
13.835761 85.626 -125.0195
13.936021 85.657 -125.4638
14.037007 85.688 -125.9101
14.138725 85.720 -126.3595
14.241180 85.751 -126.8125
14.344377 85.782 -127.2698
14.448323 85.813 -127.7313
14.553021 85.843 -128.1970
14.658478 85.872 -128.6665
14.764700 85.901 -129.1392
14.871691 85.928 -129.6140
14.979457 85.954 -130.0897
15.088005 85.979 -130.5651
15.197339 86.002 -131.0388
15.307465 86.025 -131.5096
15.418389 86.046 -131.9762
15.530117 86.067 -132.4377
15.642655 86.087 -132.8934
15.756008 86.107 -133.3432
15.870182 86.127 -133.7869
15.985184 86.147 -134.2253
16.101019 86.167 -134.6593
16.217694 86.188 -135.0900
16.335214 86.210 -135.5190
16.453586 86.232 -135.9480
16.572815 86.255 -136.3785
16.692909 86.278 -136.8121
16.813872 86.302 -137.2500
16.935713 86.326 -137.6930
17.058436 86.349 -138.1416
17.182048 86.372 -138.5955
17.306556 86.395 -139.0541
17.431967 86.416 -139.5163
17.558286 86.436 -139.9805
17.685521 86.455 -140.4449
17.813677 86.472 -140.9076
17.942762 86.488 -141.3668
18.072783 86.504 -141.8209
18.203746 86.518 -142.2688
18.335658 86.533 -142.7099
18.468526 86.547 -143.1443
18.602356 86.561 -143.5727
18.737156 86.576 -143.9964
18.872934 86.591 -144.4173
19.009695 86.607 -144.8373
19.147447 86.623 -145.2586
19.286197 86.640 -145.6830
19.425953 86.657 -146.1119
19.566721 86.673 -146.5457
19.708510 86.689 -146.9844
19.851326 86.704 -147.4266
19.995177 86.717 -147.8705
20.140070 86.728 -148.3133
20.286013 86.737 -148.7519
20.433014 86.745 -149.1834
20.581080 86.752 -149.6049
20.730219 86.758 -150.0148
20.880439 86.764 -150.4122
21.031747 86.771 -150.7978
21.184152 86.779 -151.1739
21.337661 86.788 -151.5440
21.492282 86.800 -151.9129
21.648024 86.813 -152.2858
21.804895 86.828 -152.6681
21.962902 86.845 -153.0643
22.122054 86.862 -153.4777
22.282360 86.878 -153.9099
22.443827 86.892 -154.3604
22.606464 86.904 -154.8264
22.770280 86.912 -155.3034
22.935283 86.917 -155.7855
23.101481 86.917 -156.2657
23.268884 86.913 -156.7375
23.437500 86.907 -157.1947
23.607338 86.897 -157.6329
23.778406 86.887 -158.0496
23.950714 86.876 -158.4445
24.124271 86.865 -158.8198
24.299086 86.856 -159.1791
24.475167 86.850 -159.5276
24.652524 86.845 -159.8707
24.831166 86.842 -160.2135
25.011103 86.840 -160.5602
25.192344 86.840 -160.9133
25.374898 86.840 -161.2737
25.558775 86.839 -161.6409
25.743984 86.838 -162.0132
25.930536 86.837 -162.3885
26.118439 86.834 -162.7646
26.307704 86.831 -163.1397
26.498341 86.827 -163.5129
26.690359 86.823 -163.8839
26.883768 86.819 -164.2533
27.078579 86.815 -164.6218
27.274801 86.811 -164.9901
27.472446 86.806 -165.3585
27.671522 86.801 -165.7268
27.872042 86.796 -166.0943
28.074014 86.790 -166.4600
28.277450 86.784 -166.8227
28.482360 86.777 -167.1817
28.688755 86.771 -167.5370
28.896645 86.764 -167.8891
29.106042 86.758 -168.2394
29.316957 86.753 -168.5898
29.529400 86.747 -168.9423
29.743382 86.742 -169.2984
29.958915 86.736 -169.6588
30.176009 86.729 -170.0234
30.394677 86.721 -170.3908
30.614929 86.712 -170.7590
30.836778 86.701 -171.1250
31.060234 86.689 -171.4862
31.285309 86.676 -171.8405
31.512015 86.662 -172.1866
31.740364 86.649 -172.5247
31.970368 86.635 -172.8565
32.202039 86.622 -173.1846
32.435388 86.610 -173.5122
32.670428 86.597 -173.8424
32.907171 86.585 -174.1772
33.145630 86.573 -174.5168
33.385817 86.559 -174.8597
33.627745 86.544 -175.2028
33.871425 86.527 -175.5419
34.116871 86.509 -175.8729
34.364096 86.490 -176.1929
34.613113 86.472 -176.5014
34.863934 86.454 -176.7999
35.116572 86.438 -177.0927
35.371041 86.424 -177.3851
35.627354 86.412 -177.6825
35.885525 86.400 -177.9887
36.145566 86.388 -178.3053
36.407492 86.376 -178.6313
36.671316 86.362 -178.9634
36.937051 86.347 -179.2969
37.204712 86.329 -179.6272
37.474313 86.311 -179.9510
37.745867 86.291 179.7339
38.019389 86.272 179.4277
38.294893 86.252 179.1296
38.572394 86.232 178.8384
38.851905 86.213 178.5530
39.133442 86.194 178.2726
39.417019 86.175 177.9963
39.702651 86.156 177.7235
39.990353 86.138 177.4530
40.280140 86.120 177.1831
40.572026 86.102 176.9122
40.866028 86.084 176.6390
41.162160 86.066 176.3634
41.460438 86.047 176.0861
41.760877 86.027 175.8088
42.063494 86.006 175.5337
42.368303 85.983 175.2624
42.675322 85.961 174.9961
42.984565 85.937 174.7351
43.296048 85.914 174.4794
43.609789 85.890 174.2287
43.925804 85.866 173.9826
44.244108 85.843 173.7405
44.564719 85.820 173.5009
44.887654 85.798 173.2612
45.212928 85.776 173.0185
45.540560 85.755 172.7698
45.870565 85.734 172.5140
46.202962 85.712 172.2522
46.537768 85.689 171.9877
46.875000 85.664 171.7246
47.214676 85.639 171.4665
47.556813 85.613 171.2144
47.901429 85.588 170.9669
48.248542 85.563 170.7206
48.598171 85.538 170.4729
48.950334 85.513 170.2231
49.305048 85.487 169.9726
49.662333 85.461 169.7248
50.022206 85.433 169.4826
50.384688 85.405 169.2474
50.749796 85.377 169.0188
51.117550 85.349 168.7951
51.487969 85.321 168.5748
51.861072 85.293 168.3575
52.236879 85.265 168.1434
52.615409 85.236 167.9334
52.996681 85.208 167.7276
53.380717 85.179 167.5251
53.767536 85.151 167.3244
54.157158 85.122 167.1239
54.549603 85.094 166.9227
54.944892 85.065 166.7210
55.343045 85.035 166.5197
55.744084 85.006 166.3191
56.148028 84.976 166.1188
56.554900 84.947 165.9176
56.964720 84.918 165.7139
57.377510 84.888 165.5076
57.793291 84.858 165.3008
58.212085 84.827 165.0972
58.633914 84.796 164.9005
59.058799 84.765 164.7125
59.486764 84.735 164.5327
59.917829 84.706 164.3584
60.352019 84.677 164.1874
60.789354 84.650 164.0185
61.229859 84.622 163.8515
61.673556 84.594 163.6870
62.120468 84.566 163.5249
62.570618 84.538 163.3643
63.024031 84.509 163.2035
63.480729 84.478 163.0422
63.940736 84.446 162.8820
64.404077 84.411 162.7263
64.870776 84.375 162.5778
65.340856 84.338 162.4365
65.814343 84.301 162.3000
66.291261 84.263 162.1663
66.771635 84.226 162.0357
67.255489 84.189 161.9099
67.742850 84.154 161.7874
68.233743 84.122 161.6610
68.728193 84.093 161.5201
69.226226 84.065 161.3573
69.727867 84.038 161.1735
70.233144 84.009 160.9778
70.742083 83.978 160.7838
71.254709 83.945 160.6030
71.771050 83.912 160.4420
72.291132 83.880 160.3004
72.814984 83.850 160.1724
73.342631 83.821 160.0508
73.874102 83.792 159.9301
74.409424 83.764 159.8092
74.948626 83.735 159.6892
75.491734 83.704 159.5717
76.038779 83.673 159.4572
76.589787 83.641 159.3448
77.144788 83.608 159.2335
77.703811 83.575 159.1228
78.266885 83.541 159.0132
78.834039 83.508 158.9059
79.405303 83.474 158.8018
79.980706 83.440 158.7006
80.560280 83.407 158.6026
81.144053 83.375 158.5081
81.732056 83.343 158.4172
82.324320 83.311 158.3286
82.920876 83.280 158.2402
83.521755 83.248 158.1502
84.126988 83.217 158.0583
84.736607 83.184 157.9657
85.350643 83.152 157.8733
85.969129 83.119 157.7814
86.592097 83.086 157.6897
87.219579 83.053 157.5978
87.851608 83.020 157.5062
88.488217 82.988 157.4156
89.129439 82.956 157.3268
89.775308 82.924 157.2399
90.425856 82.892 157.1550
91.081119 82.860 157.0742
91.741131 82.826 157.0009
92.405925 82.793 156.9365
93.075536 82.760 156.8787
93.750000 82.726 156.8236
