* Measurement data measured by REW V5.30.4
* Source: Headset (2- CX31993 HIFI AUDIO), MICROPHONE (Master Volume), L, volume: 0.500
* Format: 256k Log Swept Sine, 1 sweep at -12.0 dBFS with no timing reference
* Dated: 08 28, 24 5:29:04 PM
* REW Settings:
*  C-weighting compensation: Off
*  Target level: 75.0 dB
* Note: ; 
* Measurement: Heartfield Blanc R
* Smoothing: 1/12 octave
* Frequency Step: 96 ppo
* Start Frequency: 20.141602 Hz
*
* Freq(Hz) SPL(dB) Phase(degrees)
20.141602 96.875 9.8855
20.287556 96.875 9.8156
20.434568 96.876 9.7147
20.582645 96.877 9.5929
20.731796 96.877 9.4588
20.882027 96.879 9.3186
21.033346 96.880 9.1762
21.185762 96.882 9.0338
21.339283 96.885 8.8923
21.493916 96.889 8.7515
21.649670 96.894 8.6112
21.806553 96.899 8.4704
21.964573 96.905 8.3284
22.123737 96.911 8.1845
22.284056 96.916 8.0382
22.445536 96.921 7.8895
22.608185 96.924 7.7386
22.772013 96.925 7.5858
22.937029 96.925 7.4318
23.103241 96.922 7.2773
23.270657 96.918 7.1227
23.439285 96.911 6.9682
23.609137 96.903 6.8136
23.780218 96.895 6.6583
23.952539 96.886 6.5012
24.126110 96.876 6.3411
24.300938 96.868 6.1768
24.477032 96.860 6.0075
24.654402 96.853 5.8328
24.833057 96.847 5.6532
25.013008 96.842 5.4697
25.194263 96.838 5.2844
25.376831 96.835 5.0994
25.560722 96.832 4.9172
25.745945 96.831 4.7401
25.932510 96.831 4.5698
26.120428 96.831 4.4071
26.309708 96.832 4.2519
26.500359 96.833 4.1033
26.692390 96.835 3.9597
26.885815 96.837 3.8189
27.080641 96.838 3.6792
27.276878 96.840 3.5385
27.474539 96.841 3.3958
27.673630 96.841 3.2503
27.874165 96.840 3.1020
28.076153 96.839 2.9511
28.279604 96.837 2.7983
28.484529 96.835 2.6441
28.690941 96.832 2.4891
28.898848 96.831 2.3338
29.108261 96.829 2.1785
29.319191 96.828 2.0235
29.531651 96.827 1.8694
29.745649 96.826 1.7166
29.961199 96.826 1.5657
30.178310 96.825 1.4175
30.396996 96.824 1.2725
30.617264 96.823 1.1309
30.839128 96.822 0.9926
31.062601 96.821 0.8567
31.287693 96.819 0.7225
31.514416 96.818 0.5885
31.742783 96.817 0.4537
31.972803 96.816 0.3170
32.204491 96.815 0.1780
32.437859 96.814 0.0367
32.672916 96.813 -0.1065
32.909679 96.812 -0.2508
33.148155 96.811 -0.3951
33.388359 96.809 -0.5386
33.630306 96.808 -0.6810
33.874004 96.807 -0.8221
34.119469 96.806 -0.9622
34.366711 96.804 -1.1019
34.615746 96.803 -1.2419
34.866585 96.801 -1.3825
35.119244 96.799 -1.5243
35.373734 96.798 -1.6672
35.630066 96.796 -1.8110
35.888256 96.794 -1.9557
36.148315 96.792 -2.1008
36.410259 96.791 -2.2462
36.674103 96.789 -2.3916
36.939857 96.788 -2.5368
37.207539 96.787 -2.6815
37.477161 96.786 -2.8254
37.748737 96.785 -2.9682
38.022282 96.784 -3.1099
38.297806 96.783 -3.2506
38.575329 96.781 -3.3907
38.854862 96.780 -3.5308
39.136421 96.778 -3.6716
39.420021 96.777 -3.8136
39.705673 96.775 -3.9571
39.993397 96.773 -4.1019
40.283207 96.772 -4.2477
40.575115 96.770 -4.3940
40.869141 96.768 -4.5403
41.165295 96.767 -4.6864
41.463596 96.765 -4.8319
41.764057 96.764 -4.9768
42.066696 96.762 -5.1209
42.371529 96.761 -5.2642
42.678570 96.759 -5.4068
42.987835 96.757 -5.5487
43.299343 96.755 -5.6902
43.613110 96.753 -5.8314
43.929150 96.751 -5.9726
44.247478 96.749 -6.1143
44.568115 96.747 -6.2568
44.891075 96.746 -6.4008
45.216373 96.744 -6.5466
45.544029 96.743 -6.6942
45.874062 96.741 -6.8436
46.206486 96.739 -6.9939
46.541317 96.737 -7.1445
46.878574 96.735 -7.2946
47.218277 96.733 -7.4436
47.560440 96.730 -7.5913
47.905083 96.727 -7.7377
48.252224 96.725 -7.8830
48.601879 96.722 -8.0274
48.954067 96.720 -8.1713
49.308807 96.717 -8.3149
49.666119 96.715 -8.4584
50.026020 96.713 -8.6019
50.388531 96.710 -8.7451
50.753666 96.707 -8.8879
51.121449 96.705 -9.0302
51.491894 96.702 -9.1727
51.865025 96.700 -9.3165
52.240860 96.697 -9.4631
52.619419 96.695 -9.6136
53.000721 96.693 -9.7683
53.384785 96.690 -9.9263
53.771633 96.688 -10.0865
54.161285 96.685 -10.2474
54.553761 96.682 -10.4078
54.949081 96.679 -10.5672
55.347263 96.677 -10.7252
55.748333 96.674 -10.8817
56.152309 96.671 -11.0367
56.559212 96.668 -11.1902
56.969063 96.664 -11.3425
57.381886 96.661 -11.4942
57.797699 96.658 -11.6456
58.216526 96.655 -11.7973
58.638386 96.651 -11.9493
59.063305 96.648 -12.1020
59.491302 96.644 -12.2560
59.922401 96.640 -12.4118
60.356625 96.636 -12.5699
60.793995 96.633 -12.7301
61.234531 96.629 -12.8916
61.678261 96.624 -13.0533
62.125206 96.620 -13.2145
62.575390 96.617 -13.3750
63.028835 96.613 -13.5347
63.485569 96.609 -13.6938
63.945610 96.605 -13.8528
64.408989 96.601 -14.0116
64.875725 96.597 -14.1705
65.345840 96.593 -14.3297
65.819366 96.589 -14.4896
66.296318 96.585 -14.6509
66.776726 96.580 -14.8142
67.260620 96.576 -14.9795
67.748016 96.572 -15.1462
68.238945 96.567 -15.3134
68.733429 96.563 -15.4805
69.231499 96.558 -15.6470
69.733177 96.552 -15.8126
70.238495 96.547 -15.9775
70.747475 96.542 -16.1426
71.260139 96.536 -16.3094
71.776520 96.531 -16.4789
72.296638 96.526 -16.6511
72.820526 96.522 -16.8258
73.348213 96.517 -17.0024
73.879723 96.513 -17.1799
74.415085 96.508 -17.3572
74.954330 96.502 -17.5334
75.497482 96.497 -17.7088
76.044571 96.492 -17.8850
76.595619 96.486 -18.0624
77.150665 96.480 -18.2401
77.709732 96.473 -18.4172
78.272850 96.467 -18.5941
78.840050 96.460 -18.7715
79.411354 96.454 -18.9485
79.986801 96.447 -19.1241
80.566422 96.441 -19.2986
81.150238 96.435 -19.4736
81.738289 96.429 -19.6503
82.330597 96.422 -19.8283
82.927200 96.416 -20.0065
83.528122 96.409 -20.1852
84.133400 96.402 -20.3649
84.743065 96.396 -20.5452
85.357147 96.389 -20.7254
85.975677 96.382 -20.9054
86.598694 96.375 -21.0863
87.226227 96.367 -21.2689
87.858307 96.359 -21.4531
88.494965 96.351 -21.6385
89.136238 96.342 -21.8250
89.782158 96.334 -22.0131
90.432755 96.326 -22.2028
91.088066 96.317 -22.3939
91.748131 96.309 -22.5857
92.412979 96.300 -22.7772
93.082642 96.292 -22.9673
93.757156 96.283 -23.1555
94.436562 96.275 -23.3424
95.120888 96.266 -23.5290
95.810173 96.258 -23.7168
96.504456 96.249 -23.9067
97.203766 96.240 -24.0987
97.908142 96.231 -24.2910
98.617622 96.223 -24.4845
99.332245 96.215 -24.6844
100.052048 96.207 -24.8939
100.777069 96.197 -25.1021
101.507339 96.186 -25.2900
102.242905 96.176 -25.4580
102.983795 96.169 -25.6377
103.730057 96.162 -25.8563
104.481728 96.150 -26.0965
105.238846 96.134 -26.3118
106.001450 96.120 -26.4845
106.769577 96.111 -26.6508
107.543274 96.107 -26.8583
108.322578 96.098 -27.1086
109.107529 96.082 -27.3533
109.898170 96.063 -27.5451
110.694534 96.047 -27.6877
111.496674 96.040 -27.8321
112.304626 96.037 -28.0278
113.118431 96.032 -28.2807
113.938133 96.020 -28.5530
114.763779 96.000 -28.7936
115.595406 95.977 -28.9700
116.433060 95.956 -29.0842
117.276779 95.944 -29.1713
118.126617 95.939 -29.2849
118.982613 95.936 -29.4726
119.844810 95.928 -29.7528
120.713257 95.909 -30.0989
121.587997 95.877 -30.4434
122.469070 95.837 -30.7137
123.356529 95.799 -30.8788
124.250420 95.770 -30.9595
125.150787 95.757 -31.0047
126.057678 95.759 -31.0709
126.971146 95.773 -31.2149
127.891228 95.790 -31.4775
128.817978 95.799 -31.8634
129.751450 95.790 -32.3347
130.691681 95.759 -32.8291
131.638733 95.704 -33.2812
132.592636 95.628 -33.6272
133.553452 95.537 -33.8047
134.521240 95.444 -33.7689
135.496033 95.359 -33.5081
136.477890 95.296 -33.0366
137.466858 95.265 -32.3930
138.462997 95.277 -31.6449
139.466354 95.336 -30.8855
140.476990 95.443 -30.2347
141.494949 95.587 -29.8304
142.520279 95.748 -29.7688
143.553040 95.903 -30.0448
144.593277 96.035 -30.5672
145.641052 96.142 -31.2260
146.696426 96.228 -31.9398
147.759445 96.300 -32.6741
148.830170 96.362 -33.4409
149.908661 96.410 -34.2641
150.994965 96.436 -35.1210
152.089142 96.433 -35.9241
153.191238 96.403 -36.5741
154.301331 96.358 -37.0257
155.419464 96.307 -37.2980
156.545700 96.256 -37.4437
157.680099 96.206 -37.5276
158.822708 96.155 -37.6161
159.973602 96.095 -37.7590
161.132843 96.019 -37.9703
162.300476 95.925 -38.2281
163.476578 95.819 -38.5035
164.661194 95.712 -38.7944
165.854401 95.616 -39.1264
167.056244 95.538 -39.5236
168.266800 95.484 -39.9859
169.486130 95.451 -40.4887
170.714294 95.435 -40.9967
171.951355 95.432 -41.4804
173.197388 95.433 -41.9252
174.452454 95.431 -42.3310
175.716614 95.422 -42.7001
176.989929 95.405 -43.0296
178.272476 95.381 -43.3151
179.564316 95.355 -43.5602
180.865509 95.328 -43.7778
182.176132 95.301 -43.9877
183.496262 95.273 -44.2119
184.825958 95.245 -44.4669
186.165283 95.218 -44.7548
187.514313 95.193 -45.0604
188.873123 95.170 -45.3598
190.241776 95.148 -45.6367
191.620346 95.125 -45.8932
193.008911 95.100 -46.1444
194.407532 95.074 -46.4044
195.816284 95.048 -46.6771
197.235245 95.024 -46.9593
198.664490 95.000 -47.2477
200.104095 94.978 -47.5406
201.554138 94.956 -47.8357
203.014679 94.933 -48.1293
204.485809 94.911 -48.4182
205.967590 94.887 -48.7019
207.460114 94.864 -48.9821
208.963455 94.839 -49.2620
210.477692 94.814 -49.5439
212.002899 94.789 -49.8293
213.539154 94.764 -50.1183
215.086548 94.739 -50.4088
216.645157 94.713 -50.6979
218.215057 94.688 -50.9835
219.796341 94.662 -51.2662
221.389069 94.635 -51.5477
222.993347 94.608 -51.8291
224.609253 94.581 -52.1120
226.236862 94.553 -52.3972
227.876266 94.525 -52.6844
229.527557 94.497 -52.9729
231.190811 94.470 -53.2610
232.866119 94.442 -53.5469
234.553558 94.414 -53.8292
236.253235 94.385 -54.1083
237.965225 94.356 -54.3862
239.689621 94.327 -54.6651
241.426514 94.296 -54.9460
243.175995 94.266 -55.2282
244.938141 94.235 -55.5103
246.713058 94.203 -55.7904
248.500839 94.171 -56.0676
250.301575 94.139 -56.3425
252.115356 94.105 -56.6151
253.942291 94.072 -56.8839
255.782455 94.037 -57.1476
257.635956 94.002 -57.4059
259.502899 93.966 -57.6592
261.383362 93.929 -57.9063
263.277466 93.891 -58.1444
265.185272 93.853 -58.3706
267.106903 93.815 -58.5822
269.042480 93.776 -58.7765
270.992065 93.738 -58.9499
272.955780 93.701 -59.0990
274.933716 93.666 -59.2213
276.925995 93.634 -59.3152
278.932709 93.607 -59.3820
280.953979 93.585 -59.4277
282.989899 93.571 -59.4625
285.040558 93.564 -59.4987
287.106079 93.565 -59.5500
289.186554 93.570 -59.6306
291.282104 93.578 -59.7530
293.392853 93.589 -59.9259
295.518890 93.602 -60.1552
297.660339 93.618 -60.4436
299.817322 93.633 -60.7886
301.989929 93.645 -61.1836
304.178284 93.654 -61.6201
306.382477 93.656 -62.0881
308.602661 93.652 -62.5758
310.838928 93.642 -63.0707
313.091400 93.625 -63.5616
315.360199 93.603 -64.0405
317.645416 93.578 -64.5034
319.947205 93.549 -64.9494
322.265686 93.518 -65.3789
324.600952 93.486 -65.7930
326.953156 93.451 -66.1928
329.322388 93.416 -66.5800
331.708801 93.380 -66.9556
334.112488 93.344 -67.3204
336.533600 93.308 -67.6760
338.972260 93.272 -68.0241
341.428589 93.237 -68.3666
343.902710 93.203 -68.7048
346.394775 93.169 -69.0394
348.904907 93.135 -69.3705
351.433228 93.102 -69.6981
353.979858 93.068 -70.0219
356.544952 93.035 -70.3422
359.128632 93.002 -70.6591
361.731018 92.968 -70.9728
364.352264 92.935 -71.2834
366.992523 92.902 -71.5908
369.651917 92.869 -71.8952
372.330566 92.836 -72.1975
375.028625 92.803 -72.4983
377.746246 92.770 -72.7980
380.483551 92.738 -73.0965
383.240692 92.706 -73.3937
386.017822 92.674 -73.6900
388.815063 92.643 -73.9858
391.632568 92.611 -74.2816
394.470490 92.580 -74.5770
397.328979 92.549 -74.8714
400.208191 92.518 -75.1643
403.108276 92.488 -75.4557
406.029358 92.457 -75.7464
408.971619 92.427 -76.0373
411.935181 92.396 -76.3292
414.920227 92.366 -76.6222
417.926910 92.336 -76.9156
420.955383 92.307 -77.2078
424.005798 92.277 -77.4983
427.078308 92.248 -77.7874
430.173096 92.218 -78.0760
433.290314 92.189 -78.3645
436.430115 92.160 -78.6531
439.592682 92.131 -78.9415
442.778137 92.102 -79.2294
445.986694 92.073 -79.5160
449.218506 92.044 -79.8007
452.473724 92.015 -80.0837
455.752533 91.986 -80.3655
459.055115 91.957 -80.6467
462.381622 91.928 -80.9274
465.732239 91.900 -81.2077
469.107117 91.872 -81.4874
472.506470 91.844 -81.7664
475.930450 91.816 -82.0445
479.379242 91.789 -82.3219
482.853027 91.762 -82.5991
486.351990 91.735 -82.8763
489.876282 91.709 -83.1537
493.426117 91.682 -83.4313
497.001678 91.656 -83.7088
500.603149 91.630 -83.9864
504.230713 91.604 -84.2639
507.884583 91.578 -84.5411
511.564911 91.552 -84.8180
515.271912 91.527 -85.0946
519.005798 91.501 -85.3707
522.766724 91.476 -85.6462
526.554932 91.451 -85.9207
530.370544 91.425 -86.1938
534.213806 91.401 -86.4649
538.084961 91.376 -86.7340
541.984131 91.352 -87.0010
545.911560 91.328 -87.2662
549.867432 91.305 -87.5302
553.851990 91.282 -87.7936
557.865417 91.260 -88.0569
561.907959 91.237 -88.3204
565.979797 91.216 -88.5842
570.081116 91.194 -88.8483
574.212158 91.173 -89.1125
578.373108 91.152 -89.3767
582.564209 91.132 -89.6409
586.785706 91.112 -89.9054
591.037781 91.092 -90.1702
595.320679 91.073 -90.4356
599.634644 91.054 -90.7015
603.979858 91.035 -90.9682
608.356567 91.017 -91.2356
612.764954 90.999 -91.5036
617.205322 90.981 -91.7723
621.677856 90.964 -92.0420
626.182800 90.947 -92.3129
630.720398 90.930 -92.5852
635.290833 90.914 -92.8589
639.894409 90.898 -93.1346
644.531372 90.883 -93.4126
649.201904 90.868 -93.6932
653.906311 90.853 -93.9766
658.644775 90.838 -94.2629
663.417603 90.824 -94.5522
668.224976 90.809 -94.8448
673.067200 90.795 -95.1405
677.944519 90.780 -95.4396
682.857178 90.765 -95.7423
687.805420 90.750 -96.0493
692.789551 90.735 -96.3611
697.809814 90.719 -96.6777
702.866455 90.702 -96.9988
707.959717 90.684 -97.3242
713.089905 90.665 -97.6534
718.257263 90.646 -97.9861
723.462036 90.624 -98.3213
728.704529 90.602 -98.6578
733.985046 90.577 -98.9943
739.303833 90.550 -99.3292
744.661133 90.520 -99.6606
750.057251 90.489 -99.9862
755.492493 90.454 -100.3034
760.967102 90.417 -100.6088
766.481384 90.377 -100.8990
772.035645 90.334 -101.1699
777.630127 90.289 -101.4173
783.265137 90.242 -101.6369
788.940979 90.192 -101.8246
794.657959 90.141 -101.9766
800.416382 90.090 -102.0890
806.216553 90.038 -102.1586
812.058716 89.988 -102.1832
817.943237 89.940 -102.1618
823.870361 89.895 -102.0948
829.840454 89.854 -101.9840
835.853821 89.818 -101.8328
841.910767 89.788 -101.6459
848.011597 89.765 -101.4292
854.156616 89.750 -101.1896
860.346191 89.742 -100.9343
866.580627 89.743 -100.6703
872.860229 89.751 -100.4048
879.185364 89.766 -100.1442
885.556274 89.789 -99.8943
891.973389 89.818 -99.6602
898.437012 89.854 -99.4459
904.947449 89.895 -99.2544
911.505066 89.941 -99.0880
918.110229 89.992 -98.9480
924.763245 90.046 -98.8354
931.464478 90.104 -98.7505
938.214233 90.164 -98.6930
945.012939 90.227 -98.6626
951.860901 90.292 -98.6586
958.758484 90.359 -98.6802
965.706055 90.428 -98.7264
972.703979 90.498 -98.7964
979.752563 90.569 -98.8896
986.852234 90.642 -99.0053
994.003357 90.715 -99.1430
1001.206299 90.789 -99.3019
1008.461426 90.863 -99.4814
1015.769165 90.938 -99.6808
1023.129822 91.014 -99.8996
1030.543823 91.089 -100.1370
1038.011597 91.165 -100.3925
1045.533447 91.241 -100.6657
1053.109863 91.317 -100.9562
1060.741089 91.393 -101.2636
1068.427612 91.469 -101.5876
1076.169922 91.545 -101.9280
1083.968262 91.620 -102.2847
1091.823120 91.695 -102.6574
1099.734863 91.770 -103.0458
1107.703979 91.844 -103.4493
1115.730835 91.918 -103.8674
1123.815918 91.991 -104.2998
1131.959595 92.063 -104.7459
1140.162231 92.135 -105.2052
1148.424316 92.205 -105.6770
1156.746216 92.275 -106.1609
1165.128418 92.344 -106.6565
1173.571411 92.412 -107.1633
1182.075562 92.480 -107.6813
1190.641357 92.546 -108.2101
1199.269287 92.611 -108.7494
1207.959717 92.675 -109.2987
1216.713135 92.738 -109.8576
1225.529907 92.800 -110.4254
1234.410645 92.860 -111.0017
1243.355713 92.920 -111.5859
1252.365601 92.978 -112.1776
1261.440796 93.035 -112.7762
1270.581665 93.090 -113.3813
1279.788818 93.144 -113.9926
1289.062744 93.197 -114.6096
1298.403809 93.249 -115.2319
1307.812622 93.300 -115.8591
1317.289551 93.349 -116.4909
1326.835205 93.397 -117.1269
1336.449951 93.444 -117.7669
1346.134399 93.489 -118.4104
1355.889038 93.533 -119.0570
1365.714355 93.576 -119.7063
1375.610840 93.617 -120.3580
1385.579102 93.658 -121.0116
1395.619629 93.696 -121.6667
1405.732910 93.734 -122.3228
1415.919434 93.770 -122.9794
1426.179810 93.805 -123.6365
1436.514526 93.839 -124.2938
1446.924072 93.871 -124.9507
1457.409058 93.902 -125.6065
1467.970093 93.932 -126.2601
1478.607666 93.960 -126.9099
1489.322266 93.987 -127.5543
1500.114502 94.012 -128.1917
1510.984985 94.037 -128.8210
1521.934204 94.061 -129.4415
1532.962769 94.085 -130.0536
1544.071289 94.110 -130.6588
1555.260254 94.135 -131.2592
1566.530273 94.160 -131.8574
1577.881958 94.186 -132.4556
1589.315918 94.212 -133.0557
1600.832764 94.238 -133.6586
1612.433105 94.264 -134.2645
1624.117432 94.290 -134.8732
1635.886475 94.315 -135.4839
1647.740723 94.340 -136.0957
1659.680908 94.364 -136.7077
1671.707642 94.387 -137.3188
1683.821533 94.409 -137.9281
1696.023193 94.431 -138.5348
1708.313232 94.452 -139.1384
1720.692383 94.473 -139.7387
1733.161255 94.493 -140.3355
1745.720459 94.513 -140.9291
1758.370728 94.533 -141.5198
1771.112549 94.553 -142.1080
1783.946777 94.572 -142.6940
1796.874023 94.591 -143.2778
1809.894897 94.610 -143.8594
1823.010132 94.628 -144.4380
1836.220459 94.646 -145.0132
1849.526489 94.663 -145.5838
1862.928955 94.679 -146.1490
1876.428467 94.696 -146.7077
1890.025879 94.712 -147.2592
1903.721802 94.728 -147.8027
1917.516968 94.744 -148.3380
1931.412109 94.761 -148.8650
1945.407959 94.778 -149.3837
1959.505127 94.795 -149.8943
1973.704468 94.814 -150.3974
1988.006714 94.833 -150.8931
2002.412598 94.853 -151.3820
2016.922852 94.875 -151.8646
2031.538330 94.898 -152.3413
2046.259644 94.922 -152.8127
2061.087646 94.947 -153.2794
2076.023193 94.975 -153.7421
2091.066895 95.004 -154.2015
2106.219727 95.035 -154.6586
2121.482178 95.068 -155.1145
2136.855225 95.103 -155.5703
2152.339844 95.140 -156.0274
2167.936523 95.179 -156.4870
2183.646240 95.220 -156.9503
2199.469727 95.264 -157.4188
2215.407959 95.309 -157.8937
2231.461670 95.357 -158.3765
2247.631836 95.408 -158.8687
2263.919189 95.460 -159.3719
2280.324463 95.514 -159.8876
2296.848633 95.571 -160.4174
2313.492432 95.629 -160.9629
2330.256836 95.689 -161.5255
2347.142822 95.750 -162.1067
2364.151123 95.812 -162.7076
2381.282715 95.875 -163.3290
2398.538574 95.939 -163.9719
2415.919434 96.003 -164.6366
2433.426270 96.068 -165.3234
2451.059814 96.132 -166.0322
2468.821289 96.195 -166.7625
2486.711426 96.258 -167.5135
2504.731201 96.319 -168.2840
2522.881592 96.380 -169.0726
2541.163330 96.440 -169.8780
2559.577637 96.499 -170.6995
2578.125488 96.557 -171.5375
2596.807617 96.615 -172.3939
2615.625244 96.674 -173.2725
2634.579102 96.732 -174.1791
2653.670410 96.790 -175.1202
2672.899902 96.846 -176.1024
2692.268799 96.900 -177.1302
2711.778076 96.950 -178.2050
2731.428711 96.993 -179.3245
2751.221680 97.028 179.5178
2771.158203 97.053 178.3307
2791.239258 97.069 177.1253
2811.465820 97.074 175.9126
2831.838867 97.069 174.7034
2852.359619 97.053 173.5074
2873.029053 97.028 172.3336
2893.848145 96.994 171.1898
2914.818115 96.951 170.0826
2935.940186 96.901 169.0181
2957.215332 96.845 168.0009
2978.644531 96.782 167.0347
3000.229004 96.715 166.1219
3021.969971 96.645 165.2633
3043.868408 96.571 164.4588
3065.925537 96.496 163.7078
3088.142578 96.418 163.0103
3110.520508 96.339 162.3683
3133.060547 96.258 161.7858
3155.763916 96.177 161.2690
3178.631836 96.094 160.8252
3201.665527 96.013 160.4612
3224.866211 95.935 160.1829
3248.234863 95.861 159.9939
3271.772949 95.795 159.8946
3295.481445 95.738 159.8824
3319.361816 95.694 159.9508
3343.415283 95.665 160.0898
3367.643066 95.652 160.2857
3392.046387 95.659 160.5215
3416.626465 95.686 160.7771
3441.384766 95.735 161.0302
3466.322510 95.805 161.2567
3491.440918 95.896 161.4322
3516.741455 96.007 161.5327
3542.225098 96.136 161.5357
3567.893555 96.280 161.4217
3593.748047 96.435 161.1749
3619.789795 96.599 160.7842
3646.020264 96.767 160.2438
3672.440918 96.935 159.5533
3699.052979 97.099 158.7174
3725.857910 97.257 157.7458
3752.856934 97.406 156.6521
3780.051758 97.542 155.4523
