* Measurement data measured by REW V5.31.3
* Source: Headset (2- CX31993 HIFI AUDIO), MICROPHONE (Master Volume), R, volume: 0.400
* Format: 256k Log Swept Sine, 1 sweep at -12.0 dBFS with no timing reference
* Dated: 10 9, 24 12:25:34 PM
* REW Settings:
*  C-weighting compensation: Off
*  Target level: 75.0 dB
* Note: ; 
* Measurement: Kadenz ECHO B Bass+ L
* Smoothing: 1/12 octave
* Frequency Step: 96 ppo
* Start Frequency: 0.36621094 Hz
*
* Freq(Hz) SPL(dB) Phase(degrees)
0.366211 62.121 -43.3216
0.368865 62.113 -43.3626
0.371538 62.103 -43.4241
0.374230 62.090 -43.5015
0.376942 62.075 -43.5908
0.379673 62.059 -43.6891
0.382424 62.043 -43.7945
0.385196 62.026 -43.9059
0.387987 62.008 -44.0226
0.390798 61.991 -44.1442
0.393630 61.973 -44.2707
0.396483 61.955 -44.4021
0.399356 61.937 -44.5382
0.402250 61.919 -44.6792
0.405165 61.901 -44.8252
0.408101 61.883 -44.9761
0.411058 61.864 -45.1322
0.414037 61.845 -45.2935
0.417037 61.827 -45.4601
0.420059 61.808 -45.6320
0.423103 61.789 -45.8094
0.426169 61.770 -45.9923
0.429257 61.750 -46.1809
0.432368 61.731 -46.3752
0.435501 61.711 -46.5754
0.438656 61.691 -46.7815
0.441835 61.671 -46.9936
0.445037 61.651 -47.2118
0.448262 61.631 -47.4363
0.451510 61.611 -47.6672
0.454782 61.590 -47.9044
0.458077 61.570 -48.1482
0.461397 61.549 -48.3987
0.464740 61.528 -48.6559
0.468108 61.507 -48.9199
0.471500 61.486 -49.1910
0.474917 61.464 -49.4690
0.478358 61.443 -49.7543
0.481825 61.421 -50.0468
0.485316 61.399 -50.3467
0.488833 61.377 -50.6541
0.492375 61.355 -50.9690
0.495943 61.333 -51.2917
0.499537 61.310 -51.6221
0.503157 61.288 -51.9604
0.506803 61.265 -52.3067
0.510475 61.242 -52.6611
0.514175 61.219 -53.0236
0.517900 61.195 -53.3944
0.521653 61.172 -53.7735
0.525434 61.148 -54.1610
0.529241 61.124 -54.5570
0.533076 61.100 -54.9616
0.536939 61.076 -55.3748
0.540830 61.052 -55.7967
0.544749 61.027 -56.2273
0.548696 61.003 -56.6667
0.552673 60.978 -57.1149
0.556677 60.953 -57.5720
0.560711 60.927 -58.0380
0.564774 60.902 -58.5129
0.568867 60.876 -58.9966
0.572989 60.851 -59.4892
0.577141 60.825 -59.9907
0.581324 60.798 -60.5010
0.585536 60.772 -61.0201
0.589779 60.746 -61.5479
0.594053 60.719 -62.0844
0.598358 60.692 -62.6294
0.602694 60.665 -63.1828
0.607061 60.637 -63.7446
0.611460 60.610 -64.3145
0.615891 60.582 -64.8925
0.620354 60.554 -65.4783
0.624849 60.526 -66.0717
0.629377 60.498 -66.6725
0.633938 60.469 -67.2805
0.638532 60.440 -67.8955
0.643159 60.411 -68.5170
0.647819 60.382 -69.1449
0.652514 60.353 -69.7787
0.657242 60.323 -70.4182
0.662005 60.294 -71.0630
0.666802 60.263 -71.7126
0.671634 60.233 -72.3666
0.676501 60.203 -73.0246
0.681403 60.172 -73.6860
0.686341 60.141 -74.3504
0.691314 60.110 -75.0172
0.696324 60.078 -75.6857
0.701370 60.047 -76.3553
0.706452 60.014 -77.0251
0.711571 59.981 -77.6944
0.716728 59.947 -78.3623
0.721921 59.911 -79.0284
0.727153 59.873 -79.6927
0.732422 59.832 -80.3568
0.737729 59.787 -81.0240
0.743075 59.739 -81.6996
0.748460 59.686 -82.3894
0.753883 59.629 -83.0980
0.759346 59.569 -83.8292
0.764849 59.505 -84.5854
0.770391 59.438 -85.3687
0.775974 59.367 -86.1803
0.781597 59.293 -87.0213
0.787261 59.217 -87.8927
0.792966 59.137 -88.7953
0.798712 59.055 -89.7301
0.804500 58.970 -90.6977
0.810329 58.882 -91.6990
0.816201 58.792 -92.7348
0.822116 58.699 -93.8059
0.828073 58.605 -94.9131
0.834074 58.509 -96.0571
0.840118 58.410 -97.2388
0.846206 58.310 -98.4590
0.852338 58.209 -99.7182
0.858514 58.106 -101.0172
0.864735 58.002 -102.3568
0.871001 57.898 -103.7374
0.877313 57.792 -105.1598
0.883670 57.686 -106.6244
0.890074 57.580 -108.1316
0.896524 57.474 -109.6820
0.903020 57.368 -111.2759
0.909564 57.263 -112.9135
0.916155 57.159 -114.5950
0.922794 57.055 -116.3205
0.929481 56.953 -118.0902
0.936216 56.853 -119.9040
0.943000 56.755 -121.7618
0.949834 56.659 -123.6635
0.956717 56.566 -125.6087
0.963649 56.476 -127.5972
0.970632 56.390 -129.6288
0.977666 56.307 -131.7029
0.984750 56.229 -133.8193
0.991886 56.156 -135.9775
0.999074 56.087 -138.1771
1.006314 56.025 -140.4179
1.013606 55.968 -142.6994
1.020951 55.919 -145.0215
1.028349 55.876 -147.3841
1.035801 55.842 -149.7871
1.043307 55.815 -152.2307
1.050867 55.798 -154.7153
1.058482 55.790 -157.2417
1.066152 55.792 -159.8110
1.073878 55.805 -162.4247
1.081660 55.830 -165.0849
1.089498 55.866 -167.7941
1.097393 55.915 -170.5548
1.105345 55.976 -173.3683
1.113355 56.050 -176.2336
1.121423 56.137 -179.1465
1.129549 56.237 177.9005
1.137734 56.349 174.9179
1.145979 56.474 171.9181
1.154283 56.611 168.9143
1.162647 56.761 165.9203
1.171072 56.922 162.9499
1.179558 57.094 160.0154
1.188106 57.278 157.1286
1.196715 57.472 154.2997
1.205387 57.676 151.5370
1.214122 57.890 148.8477
1.222920 58.113 146.2368
1.231782 58.345 143.7079
1.240708 58.586 141.2633
1.249699 58.834 138.9037
1.258754 59.089 136.6287
1.267876 59.352 134.4373
1.277063 59.620 132.3273
1.286318 59.894 130.2961
1.295639 60.172 128.3406
1.305027 60.455 126.4573
1.314484 60.741 124.6426
1.324009 61.030 122.8927
1.333604 61.320 121.2037
1.343268 61.612 119.5715
1.353002 61.903 117.9926
1.362806 62.195 116.4630
1.372681 62.484 114.9792
1.382628 62.771 113.5374
1.392647 63.055 112.1344
1.402739 63.334 110.7669
1.412904 63.609 109.4319
1.423142 63.878 108.1265
1.433455 64.141 106.8482
1.443843 64.398 105.5950
1.454305 64.649 104.3654
1.464844 64.895 103.1584
1.475459 65.137 101.9740
1.486150 65.377 100.8120
1.496920 65.615 99.6725
1.507767 65.853 98.5556
1.518693 66.090 97.4608
1.529698 66.328 96.3874
1.540783 66.565 95.3348
1.551948 66.803 94.3019
1.563194 67.041 93.2878
1.574521 67.279 92.2913
1.585931 67.516 91.3112
1.597423 67.754 90.3464
1.608999 67.992 89.3957
1.620658 68.229 88.4579
1.632402 68.466 87.5319
1.644232 68.703 86.6163
1.656146 68.940 85.7101
1.668147 69.176 84.8122
1.680235 69.411 83.9213
1.692411 69.645 83.0364
1.704675 69.879 82.1563
1.717028 70.111 81.2799
1.729470 70.343 80.4063
1.742003 70.574 79.5344
1.754626 70.803 78.6632
1.767341 71.031 77.7918
1.780147 71.257 76.9195
1.793047 71.482 76.0456
1.806040 71.704 75.1700
1.819128 71.925 74.2926
1.832310 72.144 73.4140
1.845587 72.361 72.5352
1.858961 72.575 71.6573
1.872432 72.787 70.7816
1.886001 72.997 69.9089
1.899667 73.204 69.0401
1.913433 73.409 68.1758
1.927299 73.612 67.3162
1.941265 73.813 66.4617
1.955332 74.012 65.6123
1.969501 74.209 64.7681
1.983773 74.404 63.9288
1.998148 74.598 63.0944
2.012627 74.790 62.2644
2.027212 74.981 61.4387
2.041902 75.171 60.6167
2.056698 75.360 59.7981
2.071602 75.548 58.9822
2.086614 75.735 58.1686
2.101734 75.921 57.3567
2.116964 76.107 56.5457
2.132304 76.293 55.7352
2.147756 76.479 54.9245
2.163320 76.664 54.1130
2.178996 76.849 53.3003
2.194786 77.033 52.4861
2.210690 77.217 51.6706
2.226710 77.400 50.8540
2.242845 77.582 50.0367
2.259098 77.762 49.2193
2.275468 77.941 48.4022
2.291957 78.118 47.5860
2.308566 78.294 46.7709
2.325295 78.469 45.9575
2.342145 78.643 45.1458
2.359117 78.815 44.3359
2.376212 78.986 43.5280
2.393431 79.156 42.7219
2.410775 79.325 41.9177
2.428244 79.494 41.1151
2.445840 79.661 40.3138
2.463564 79.828 39.5136
2.481416 79.994 38.7141
2.499397 80.160 37.9148
2.517509 80.326 37.1153
2.535752 80.491 36.3149
2.554127 80.655 35.5131
2.572635 80.819 34.7095
2.591277 80.981 33.9038
2.610055 81.143 33.0960
2.628968 81.304 32.2863
2.648019 81.463 31.4751
2.667208 81.621 30.6628
2.686535 81.778 29.8500
2.706003 81.935 29.0371
2.725612 82.089 28.2245
2.745363 82.243 27.4126
2.765257 82.397 26.6016
2.785295 82.549 25.7917
2.805478 82.700 24.9830
2.825808 82.851 24.1755
2.846285 83.001 23.3692
2.866910 83.150 22.5636
2.887685 83.299 21.7585
2.908611 83.447 20.9532
2.929688 83.595 20.1471
2.950917 83.742 19.3395
2.972301 83.887 18.5300
2.993839 84.032 17.7185
3.015534 84.175 16.9050
3.037386 84.318 16.0900
3.059396 84.459 15.2740
3.081565 84.600 14.4575
3.103896 84.739 13.6410
3.126388 84.878 12.8251
3.149043 85.015 12.0100
3.171862 85.152 11.1962
3.194847 85.288 10.3837
3.217998 85.424 9.5727
3.241317 85.558 8.7629
3.264805 85.692 7.9538
3.288463 85.825 7.1448
3.312293 85.958 6.3352
3.336295 86.089 5.5242
3.360471 86.220 4.7114
3.384822 86.349 3.8969
3.409350 86.477 3.0808
3.434056 86.605 2.2637
3.458940 86.731 1.4461
3.484005 86.856 0.6288
3.509252 86.981 -0.1877
3.534681 87.105 -1.0029
3.560295 87.227 -1.8165
3.586094 87.350 -2.6281
3.612081 87.471 -3.4379
3.638255 87.592 -4.2462
3.664620 87.711 -5.0537
3.691175 87.830 -5.8612
3.717923 87.948 -6.6693
3.744864 88.065 -7.4783
3.772001 88.182 -8.2883
3.799335 88.297 -9.0988
3.826866 88.411 -9.9093
3.854597 88.524 -10.7194
3.882529 88.636 -11.5282
3.910664 88.748 -12.3354
3.939002 88.858 -13.1406
3.967546 88.968 -13.9437
3.996296 89.078 -14.7448
4.025255 89.186 -15.5443
4.054423 89.294 -16.3430
4.083804 89.401 -17.1415
4.113396 89.506 -17.9401
4.143204 89.611 -18.7389
4.173227 89.715 -19.5377
4.203468 89.818 -20.3359
4.233928 89.921 -21.1331
4.264609 90.022 -21.9286
4.295512 90.123 -22.7220
4.326639 90.223 -23.5132
4.357992 90.322 -24.3019
4.389572 90.421 -25.0887
4.421380 90.519 -25.8740
4.453419 90.615 -26.6583
4.485691 90.712 -27.4420
4.518196 90.807 -28.2252
4.550936 90.901 -29.0076
4.583914 90.995 -29.7889
4.617131 91.088 -30.5686
4.650589 91.180 -31.3463
4.684289 91.272 -32.1219
4.718233 91.363 -32.8950
4.752424 91.453 -33.6661
4.786862 91.542 -34.4354
4.821549 91.631 -35.2032
4.856488 91.719 -35.9702
4.891680 91.806 -36.7360
4.927127 91.893 -37.5008
4.962831 91.979 -38.2642
4.998794 92.064 -39.0258
5.035017 92.148 -39.7853
5.071503 92.232 -40.5427
5.108253 92.316 -41.2981
5.145270 92.398 -42.0516
5.182555 92.480 -42.8035
5.220110 92.562 -43.5542
5.257937 92.642 -44.3037
5.296038 92.722 -45.0520
5.334415 92.802 -45.7988
5.373071 92.880 -46.5440
5.412006 92.959 -47.2873
5.451224 93.036 -48.0286
5.490725 93.113 -48.7681
5.530514 93.190 -49.5060
5.570590 93.265 -50.2426
5.610957 93.340 -50.9779
5.651616 93.415 -51.7120
5.692570 93.489 -52.4448
5.733821 93.562 -53.1761
5.775370 93.635 -53.9058
5.817221 93.707 -54.6336
5.859375 93.778 -55.3599
5.901834 93.849 -56.0847
5.944602 93.920 -56.8082
5.987679 93.990 -57.5305
6.031068 94.059 -58.2517
6.074771 94.127 -58.9714
6.118792 94.195 -59.6897
6.163131 94.263 -60.4062
6.207792 94.329 -61.1212
6.252776 94.395 -61.8346
6.298086 94.461 -62.5466
6.343725 94.526 -63.2574
6.389694 94.590 -63.9669
6.435996 94.654 -64.6749
6.482634 94.717 -65.3813
6.529610 94.780 -66.0861
6.576926 94.842 -66.7891
6.624585 94.903 -67.4904
6.672590 94.964 -68.1901
6.720942 95.024 -68.8884
6.769645 95.083 -69.5851
6.818700 95.142 -70.2800
6.868111 95.200 -70.9731
6.917881 95.258 -71.6643
6.968010 95.315 -72.3534
7.018504 95.371 -73.0406
7.069362 95.427 -73.7260
7.120590 95.482 -74.4094
7.172189 95.537 -75.0908
7.224161 95.591 -75.7700
7.276511 95.644 -76.4470
7.329239 95.697 -77.1216
7.382350 95.749 -77.7939
7.435845 95.801 -78.4640
7.489729 95.852 -79.1317
7.544002 95.902 -79.7971
7.598669 95.952 -80.4599
7.653732 96.002 -81.1201
7.709194 96.051 -81.7776
7.765058 96.099 -82.4326
7.821327 96.147 -83.0848
7.878004 96.194 -83.7345
7.935091 96.241 -84.3815
7.992592 96.287 -85.0256
8.050510 96.333 -85.6669
8.108847 96.379 -86.3054
8.167607 96.424 -86.9412
8.226793 96.468 -87.5741
8.286408 96.512 -88.2043
8.346454 96.556 -88.8317
8.406936 96.599 -89.4563
8.467856 96.642 -90.0781
8.529218 96.685 -90.6973
8.591024 96.727 -91.3137
8.653278 96.769 -91.9276
8.715983 96.810 -92.5389
8.779143 96.852 -93.1477
8.842760 96.893 -93.7540
8.906839 96.933 -94.3580
8.971381 96.973 -94.9597
9.036392 97.013 -95.5591
9.101873 97.053 -96.1565
9.167829 97.092 -96.7518
9.234263 97.131 -97.3451
9.301178 97.170 -97.9365
9.368578 97.208 -98.5261
9.436467 97.247 -99.1140
9.504847 97.284 -99.7003
9.573723 97.322 -100.2849
9.643099 97.359 -100.8679
9.712976 97.396 -101.4495
9.783361 97.432 -102.0295
9.854255 97.468 -102.6082
9.925663 97.503 -103.1853
9.997588 97.539 -103.7610
10.070035 97.573 -104.3352
10.143007 97.608 -104.9080
10.216507 97.641 -105.4791
10.290540 97.675 -106.0486
10.365109 97.708 -106.6165
10.440219 97.740 -107.1826
10.515873 97.772 -107.7468
10.592076 97.803 -108.3091
10.668830 97.834 -108.8693
10.746141 97.864 -109.4273
10.824012 97.894 -109.9830
10.902447 97.924 -110.5364
10.981451 97.952 -111.0873
11.061027 97.981 -111.6356
11.141180 98.009 -112.1812
11.221913 98.036 -112.7240
11.303232 98.063 -113.2640
11.385140 98.090 -113.8013
11.467641 98.116 -114.3356
11.550741 98.142 -114.8671
11.634442 98.167 -115.3956
11.718750 98.192 -115.9214
11.803669 98.217 -116.4443
11.889203 98.241 -116.9646
11.975357 98.265 -117.4821
12.062136 98.289 -117.9971
12.149543 98.313 -118.5095
12.237583 98.336 -119.0195
12.326262 98.359 -119.5272
12.415583 98.382 -120.0327
12.505552 98.404 -120.5360
12.596172 98.426 -121.0372
12.687449 98.448 -121.5363
12.779387 98.470 -122.0334
12.871992 98.491 -122.5286
12.965268 98.512 -123.0217
13.059220 98.533 -123.5129
13.153852 98.553 -124.0021
13.249170 98.573 -124.4893
13.345179 98.593 -124.9745
13.441884 98.613 -125.4577
13.539289 98.632 -125.9389
13.637401 98.651 -126.4182
13.736223 98.670 -126.8954
13.835761 98.689 -127.3708
13.936021 98.707 -127.8445
14.037007 98.726 -128.3166
14.138725 98.744 -128.7872
14.241180 98.762 -129.2565
14.344377 98.780 -129.7247
14.448323 98.798 -130.1920
14.553021 98.815 -130.6588
14.658478 98.833 -131.1251
14.764700 98.850 -131.5913
14.871691 98.867 -132.0575
14.979457 98.884 -132.5238
15.088005 98.900 -132.9904
15.197339 98.916 -133.4571
15.307465 98.932 -133.9240
15.418389 98.947 -134.3909
15.530117 98.961 -134.8575
15.642655 98.975 -135.3236
15.756008 98.989 -135.7888
15.870182 99.001 -136.2526
15.985184 99.013 -136.7145
16.101019 99.025 -137.1742
16.217694 99.036 -137.6311
16.335214 99.046 -138.0847
16.453586 99.056 -138.5348
16.572815 99.065 -138.9810
16.692909 99.074 -139.4230
16.813872 99.083 -139.8610
16.935713 99.092 -140.2949
17.058436 99.100 -140.7250
17.182048 99.109 -141.1516
17.306556 99.118 -141.5751
17.431967 99.126 -141.9961
17.558286 99.135 -142.4151
17.685521 99.144 -142.8327
17.813677 99.153 -143.2495
17.942762 99.163 -143.6659
18.072783 99.172 -144.0823
18.203746 99.181 -144.4988
18.335658 99.190 -144.9156
18.468526 99.198 -145.3326
18.602356 99.206 -145.7496
18.737156 99.214 -146.1659
18.872934 99.221 -146.5812
19.009695 99.227 -146.9948
19.147447 99.233 -147.4062
19.286197 99.239 -147.8148
19.425953 99.244 -148.2202
19.566721 99.249 -148.6219
19.708510 99.253 -149.0200
19.851326 99.258 -149.4144
19.995177 99.262 -149.8054
20.140070 99.267 -150.1936
20.286013 99.272 -150.5795
20.433014 99.276 -150.9636
20.581080 99.281 -151.3468
20.730219 99.286 -151.7296
20.880439 99.291 -152.1123
21.031747 99.296 -152.4953
21.184152 99.300 -152.8785
21.337661 99.305 -153.2617
21.492282 99.309 -153.6444
21.648024 99.312 -154.0260
21.804895 99.315 -154.4058
21.962902 99.318 -154.7832
22.122054 99.320 -155.1577
22.282360 99.322 -155.5289
22.443827 99.324 -155.8970
22.606464 99.326 -156.2622
22.770280 99.329 -156.6254
22.935283 99.332 -156.9874
23.101481 99.335 -157.3495
23.268884 99.339 -157.7128
23.437500 99.343 -158.0782
23.607338 99.347 -158.4469
23.778406 99.351 -158.8190
23.950714 99.354 -159.1946
24.124271 99.357 -159.5734
24.299086 99.359 -159.9545
24.475167 99.361 -160.3367
24.652524 99.361 -160.7187
24.831166 99.361 -161.0994
25.011103 99.360 -161.4774
25.192344 99.358 -161.8521
25.374898 99.356 -162.2228
25.558775 99.353 -162.5895
25.743984 99.350 -162.9520
25.930536 99.347 -163.3110
26.118439 99.344 -163.6671
26.307704 99.341 -164.0206
26.498341 99.339 -164.3723
26.690359 99.336 -164.7227
26.883768 99.333 -165.0720
27.078579 99.329 -165.4204
27.274801 99.326 -165.7682
27.472446 99.323 -166.1154
27.671522 99.319 -166.4619
27.872042 99.314 -166.8076
28.074014 99.310 -167.1524
28.277450 99.305 -167.4961
28.482360 99.299 -167.8383
28.688755 99.293 -168.1784
28.896645 99.286 -168.5159
29.106042 99.278 -168.8500
29.316957 99.270 -169.1802
29.529400 99.262 -169.5059
29.743382 99.253 -169.8265
29.958915 99.244 -170.1418
30.176009 99.235 -170.4520
30.394677 99.226 -170.7569
30.614929 99.217 -171.0571
30.836778 99.208 -171.3531
31.060234 99.200 -171.6456
31.285309 99.192 -171.9354
31.512015 99.185 -172.2239
31.740364 99.179 -172.5121
31.970368 99.173 -172.8016
32.202039 99.168 -173.0936
32.435388 99.163 -173.3893
32.670428 99.159 -173.6897
32.907171 99.155 -173.9949
33.145630 99.150 -174.3051
33.385817 99.145 -174.6198
33.627745 99.140 -174.9383
33.871425 99.135 -175.2599
34.116871 99.129 -175.5844
34.364096 99.123 -175.9112
34.613113 99.116 -176.2405
34.863934 99.109 -176.5724
35.116572 99.101 -176.9067
35.371041 99.093 -177.2427
35.627354 99.083 -177.5793
35.885525 99.072 -177.9149
36.145566 99.061 -178.2473
36.407492 99.048 -178.5742
36.671316 99.035 -178.8936
36.937051 99.021 -179.2042
37.204712 99.007 -179.5057
37.474313 98.995 -179.7990
37.745867 98.983 179.9138
38.019389 98.972 179.6296
38.294893 98.962 179.3444
38.572394 98.954 179.0544
38.851905 98.946 178.7568
39.133442 98.938 178.4503
39.417019 98.930 178.1357
39.702651 98.919 177.8157
39.990353 98.908 177.4939
40.280140 98.894 177.1743
40.572026 98.880 176.8596
40.866028 98.864 176.5508
41.162160 98.848 176.2472
41.460438 98.833 175.9467
41.760877 98.816 175.6475
42.063494 98.800 175.3486
42.368303 98.783 175.0504
42.675322 98.765 174.7540
42.984565 98.746 174.4609
43.296048 98.727 174.1719
43.609789 98.707 173.8869
43.925804 98.688 173.6055
44.244108 98.668 173.3278
44.564719 98.648 173.0546
44.887654 98.629 172.7871
45.212928 98.610 172.5256
45.540560 98.592 172.2679
45.870565 98.576 172.0099
46.202962 98.561 171.7455
46.537768 98.548 171.4698
46.875000 98.534 171.1811
47.214676 98.519 170.8818
47.556813 98.503 170.5776
47.901429 98.485 170.2754
48.248542 98.465 169.9800
48.598171 98.445 169.6926
48.950334 98.426 169.4115
49.305048 98.407 169.1329
49.662333 98.388 168.8536
50.022206 98.369 168.5725
50.384688 98.349 168.2905
50.749796 98.329 168.0100
51.117550 98.308 167.7330
51.487969 98.286 167.4608
51.861072 98.264 167.1924
52.236879 98.242 166.9260
52.615409 98.219 166.6597
52.996681 98.197 166.3922
53.380717 98.173 166.1239
53.767536 98.148 165.8563
54.157158 98.123 165.5914
54.549603 98.096 165.3306
54.944892 98.070 165.0745
55.343045 98.043 164.8229
55.744084 98.016 164.5756
56.148028 97.989 164.3321
56.554900 97.963 164.0912
56.964720 97.938 163.8505
57.377510 97.913 163.6061
57.793291 97.889 163.3547
58.212085 97.865 163.0946
58.633914 97.840 162.8273
59.058799 97.813 162.5570
59.486764 97.785 162.2887
59.917829 97.756 162.0262
60.352019 97.725 161.7712
60.789354 97.695 161.5228
61.229859 97.664 161.2794
61.673556 97.634 161.0393
62.120468 97.603 160.8014
62.570618 97.573 160.5645
63.024031 97.543 160.3268
63.480729 97.513 160.0863
63.940736 97.483 159.8409
64.404077 97.454 159.5903
64.870776 97.423 159.3356
65.340856 97.392 159.0791
65.814343 97.361 158.8233
66.291261 97.330 158.5695
66.771635 97.300 158.3167
67.255489 97.271 158.0615
67.742850 97.242 157.7996
68.233743 97.212 157.5300
68.728193 97.181 157.2584
69.226226 97.147 156.9957
69.727867 97.112 156.7520
70.233144 97.076 156.5297
70.742083 97.041 156.3237
71.254709 97.007 156.1272
71.771050 96.973 155.9375
72.291132 96.938 155.7552
72.814984 96.904 155.5801
73.342631 96.870 155.4091
73.874102 96.835 155.2381
74.409424 96.801 155.0654
74.948626 96.765 154.8906
75.491734 96.729 154.7134
76.038779 96.692 154.5327
76.589787 96.654 154.3489
77.144788 96.616 154.1635
77.703811 96.577 153.9778
78.266885 96.538 153.7913
78.834039 96.498 153.6023
79.405303 96.459 153.4103
79.980706 96.419 153.2170
80.560280 96.378 153.0251
81.144053 96.338 152.8365
81.732056 96.298 152.6511
82.324320 96.258 152.4677
82.920876 96.218 152.2853
83.521755 96.178 152.1052
84.126988 96.139 151.9293
84.736607 96.099 151.7587
85.350643 96.060 151.5925
85.969129 96.021 151.4290
86.592097 95.982 151.2671
87.219579 95.943 151.1071
87.851608 95.904 150.9496
88.488217 95.864 150.7952
89.129439 95.823 150.6436
89.775308 95.783 150.4943
90.425856 95.741 150.3462
91.081119 95.700 150.1985
