* Measurement data measured by REW V5.31.3
* Source: Headset (CX31993 HIFI AUDIO), MICROPHONE (Master Volume), R, volume: 0.250
* Format: 256k Log Swept Sine, 1 sweep at -12.0 dBFS with no timing reference
* Dated: 01 24, 25 8:00:39 PM
* REW Settings:
*  C-weighting compensation: Off
*  Target level: 75.0 dB
* Note: ; 
* Measurement: KZ Libra X +500 R
* Smoothing: 1/12 octave
* Frequency Step: 96 ppo
* Start Frequency: 0.36621094 Hz
*
* Freq(Hz) SPL(dB) Phase(degrees)
0.366211 47.232 -82.0554
0.368865 47.252 -82.1725
0.371538 47.282 -82.3465
0.374230 47.319 -82.5626
0.376942 47.360 -82.8080
0.379673 47.405 -83.0733
0.382424 47.451 -83.3524
0.385196 47.499 -83.6413
0.387987 47.547 -83.9379
0.390798 47.596 -84.2410
0.393630 47.646 -84.5497
0.396483 47.696 -84.8637
0.399356 47.746 -85.1829
0.402250 47.797 -85.5069
0.405165 47.848 -85.8358
0.408101 47.899 -86.1695
0.411058 47.951 -86.5079
0.414037 48.003 -86.8509
0.417037 48.055 -87.1984
0.420059 48.108 -87.5505
0.423103 48.162 -87.9069
0.426169 48.215 -88.2677
0.429257 48.269 -88.6328
0.432368 48.324 -89.0021
0.435501 48.379 -89.3754
0.438656 48.434 -89.7528
0.441835 48.490 -90.1342
0.445037 48.546 -90.5193
0.448262 48.602 -90.9083
0.451510 48.659 -91.3008
0.454782 48.716 -91.6970
0.458077 48.774 -92.0967
0.461397 48.832 -92.4997
0.464740 48.891 -92.9061
0.468108 48.950 -93.3157
0.471500 49.009 -93.7283
0.474917 49.069 -94.1440
0.478358 49.129 -94.5626
0.481825 49.190 -94.9841
0.485316 49.251 -95.4082
0.488833 49.312 -95.8351
0.492375 49.374 -96.2644
0.495943 49.437 -96.6963
0.499537 49.500 -97.1305
0.503157 49.563 -97.5670
0.506803 49.627 -98.0058
0.510475 49.691 -98.4466
0.514175 49.756 -98.8895
0.517900 49.821 -99.3344
0.521653 49.887 -99.7812
0.525434 49.953 -100.2298
0.529241 50.020 -100.6802
0.533076 50.087 -101.1322
0.536939 50.155 -101.5860
0.540830 50.223 -102.0413
0.544749 50.292 -102.4981
0.548696 50.361 -102.9564
0.552673 50.430 -103.4162
0.556677 50.500 -103.8773
0.560711 50.571 -104.3399
0.564774 50.642 -104.8037
0.568867 50.714 -105.2689
0.572989 50.786 -105.7353
0.577141 50.859 -106.2030
0.581324 50.932 -106.6720
0.585536 51.006 -107.1422
0.589779 51.080 -107.6136
0.594053 51.155 -108.0863
0.598358 51.230 -108.5602
0.602694 51.306 -109.0355
0.607061 51.383 -109.5120
0.611460 51.460 -109.9898
0.615891 51.537 -110.4689
0.620354 51.616 -110.9494
0.624849 51.694 -111.4313
0.629377 51.774 -111.9147
0.633938 51.854 -112.3996
0.638532 51.934 -112.8860
0.643159 52.015 -113.3741
0.647819 52.097 -113.8639
0.652514 52.179 -114.3554
0.657242 52.262 -114.8487
0.662005 52.345 -115.3440
0.666802 52.429 -115.8413
0.671634 52.514 -116.3406
0.676501 52.599 -116.8422
0.681403 52.685 -117.3461
0.686341 52.771 -117.8524
0.691314 52.858 -118.3612
0.696324 52.946 -118.8726
0.701370 53.034 -119.3867
0.706452 53.123 -119.9037
0.711571 53.213 -120.4234
0.716728 53.302 -120.9460
0.721921 53.392 -121.4712
0.727153 53.483 -121.9987
0.732422 53.573 -122.5282
0.737729 53.663 -123.0590
0.743075 53.753 -123.5904
0.748460 53.844 -124.1219
0.753883 53.935 -124.6529
0.759346 54.026 -125.1830
0.764849 54.118 -125.7120
0.770391 54.210 -126.2396
0.775974 54.303 -126.7657
0.781597 54.396 -127.2901
0.787261 54.490 -127.8127
0.792966 54.585 -128.3334
0.798712 54.680 -128.8522
0.804500 54.775 -129.3690
0.810329 54.872 -129.8837
0.816201 54.969 -130.3964
0.822116 55.066 -130.9069
0.828073 55.164 -131.4154
0.834074 55.263 -131.9218
0.840118 55.362 -132.4261
0.846206 55.462 -132.9284
0.852338 55.562 -133.4286
0.858514 55.663 -133.9270
0.864735 55.765 -134.4234
0.871001 55.867 -134.9181
0.877313 55.969 -135.4110
0.883670 56.073 -135.9023
0.890074 56.176 -136.3921
0.896524 56.280 -136.8804
0.903020 56.385 -137.3675
0.909564 56.490 -137.8534
0.916155 56.596 -138.3383
0.922794 56.702 -138.8223
0.929481 56.808 -139.3056
0.936216 56.915 -139.7883
0.943000 57.023 -140.2706
0.949834 57.130 -140.7527
0.956717 57.239 -141.2347
0.963649 57.348 -141.7169
0.970632 57.457 -142.1994
0.977666 57.566 -142.6825
0.984750 57.676 -143.1663
0.991886 57.786 -143.6511
0.999074 57.897 -144.1370
1.006314 58.008 -144.6244
1.013606 58.119 -145.1134
1.020951 58.230 -145.6043
1.028349 58.342 -146.0973
1.035801 58.454 -146.5926
1.043307 58.566 -147.0906
1.050867 58.679 -147.5914
1.058482 58.791 -148.0952
1.066152 58.904 -148.6023
1.073878 59.017 -149.1128
1.081660 59.130 -149.6266
1.089498 59.243 -150.1438
1.097393 59.357 -150.6641
1.105345 59.470 -151.1870
1.113355 59.584 -151.7120
1.121423 59.698 -152.2387
1.129549 59.812 -152.7667
1.137734 59.927 -153.2955
1.145979 60.041 -153.8250
1.154283 60.156 -154.3550
1.162647 60.271 -154.8853
1.171072 60.386 -155.4157
1.179558 60.502 -155.9462
1.188106 60.617 -156.4766
1.196715 60.733 -157.0070
1.205387 60.849 -157.5372
1.214122 60.965 -158.0671
1.222920 61.081 -158.5968
1.231782 61.198 -159.1262
1.240708 61.315 -159.6553
1.249699 61.432 -160.1840
1.258754 61.549 -160.7125
1.267876 61.666 -161.2406
1.277063 61.783 -161.7684
1.286318 61.901 -162.2959
1.295639 62.019 -162.8233
1.305027 62.137 -163.3504
1.314484 62.255 -163.8774
1.324009 62.374 -164.4044
1.333604 62.492 -164.9314
1.343268 62.611 -165.4585
1.353002 62.730 -165.9857
1.362806 62.849 -166.5133
1.372681 62.968 -167.0412
1.382628 63.088 -167.5697
1.392647 63.208 -168.0988
1.402739 63.327 -168.6286
1.412904 63.447 -169.1593
1.423142 63.568 -169.6910
1.433455 63.688 -170.2236
1.443843 63.808 -170.7573
1.454305 63.929 -171.2918
1.464844 64.050 -171.8271
1.475459 64.171 -172.3628
1.486150 64.291 -172.8986
1.496920 64.412 -173.4344
1.507767 64.533 -173.9698
1.518693 64.653 -174.5048
1.529698 64.774 -175.0394
1.540783 64.894 -175.5735
1.551948 65.015 -176.1073
1.563194 65.135 -176.6408
1.574521 65.255 -177.1741
1.585931 65.376 -177.7073
1.597423 65.496 -178.2407
1.608999 65.616 -178.7743
1.620658 65.736 -179.3083
1.632402 65.856 -179.8429
1.644232 65.976 179.6216
1.656146 66.095 179.0850
1.668147 66.215 178.5472
1.680235 66.335 178.0078
1.692411 66.454 177.4667
1.704675 66.574 176.9235
1.717028 66.693 176.3779
1.729470 66.813 175.8297
1.742003 66.932 175.2785
1.754626 67.052 174.7241
1.767341 67.171 174.1661
1.780147 67.291 173.6042
1.793047 67.410 173.0381
1.806040 67.530 172.4675
1.819128 67.649 171.8923
1.832310 67.768 171.3124
1.845587 67.887 170.7278
1.858961 68.006 170.1388
1.872432 68.125 169.5455
1.886001 68.243 168.9484
1.899667 68.361 168.3479
1.913433 68.478 167.7443
1.927299 68.596 167.1381
1.941265 68.712 166.5295
1.955332 68.829 165.9190
1.969501 68.945 165.3068
1.983773 69.061 164.6932
1.998148 69.177 164.0784
2.012627 69.292 163.4626
2.027212 69.407 162.8461
2.041902 69.522 162.2288
2.056698 69.637 161.6110
2.071602 69.751 160.9927
2.086614 69.865 160.3738
2.101734 69.978 159.7545
2.116964 70.092 159.1346
2.132304 70.205 158.5139
2.147756 70.318 157.8922
2.163320 70.431 157.2691
2.178996 70.543 156.6442
2.194786 70.655 156.0169
2.210690 70.767 155.3865
2.226710 70.878 154.7526
2.242845 70.989 154.1150
2.259098 71.099 153.4736
2.275468 71.208 152.8287
2.291957 71.317 152.1806
2.308566 71.426 151.5298
2.325295 71.534 150.8768
2.342145 71.641 150.2221
2.359117 71.748 149.5661
2.376212 71.854 148.9094
2.393431 71.960 148.2522
2.410775 72.065 147.5951
2.428244 72.170 146.9384
2.445840 72.274 146.2822
2.463564 72.378 145.6269
2.481416 72.481 144.9726
2.499397 72.584 144.3192
2.517509 72.686 143.6665
2.535752 72.788 143.0141
2.554127 72.890 142.3613
2.572635 72.991 141.7072
2.591277 73.091 141.0509
2.610055 73.190 140.3917
2.628968 73.289 139.7295
2.648019 73.387 139.0641
2.667208 73.484 138.3961
2.686535 73.580 137.7257
2.706003 73.676 137.0538
2.725612 73.771 136.3809
2.745363 73.865 135.7077
2.765257 73.959 135.0348
2.785295 74.051 134.3630
2.805478 74.144 133.6927
2.825808 74.235 133.0246
2.846285 74.326 132.3589
2.866910 74.417 131.6958
2.887685 74.507 131.0352
2.908611 74.596 130.3767
2.929688 74.685 129.7195
2.950917 74.772 129.0627
2.972301 74.860 128.4051
2.993839 74.946 127.7464
3.015534 75.031 127.0862
3.037386 75.116 126.4247
3.059396 75.199 125.7625
3.081565 75.282 125.1000
3.103896 75.364 124.4381
3.126388 75.445 123.7776
3.149043 75.526 123.1192
3.171862 75.606 122.4637
3.194847 75.685 121.8118
3.217998 75.764 121.1641
3.241317 75.842 120.5208
3.264805 75.920 119.8820
3.288463 75.997 119.2473
3.312293 76.073 118.6158
3.336295 76.149 117.9869
3.360471 76.224 117.3598
3.384822 76.298 116.7342
3.409350 76.371 116.1099
3.434056 76.444 115.4872
3.458940 76.516 114.8664
3.484005 76.587 114.2481
3.509252 76.658 113.6329
3.534681 76.728 113.0213
3.560295 76.798 112.4139
3.586094 76.867 111.8113
3.612081 76.936 111.2137
3.638255 77.005 110.6212
3.664620 77.073 110.0336
3.691175 77.141 109.4506
3.717923 77.209 108.8715
3.744864 77.276 108.2960
3.772001 77.342 107.7239
3.799335 77.408 107.1550
3.826866 77.474 106.5894
3.854597 77.539 106.0271
3.882529 77.604 105.4684
3.910664 77.669 104.9136
3.939002 77.734 104.3628
3.967546 77.798 103.8163
3.996296 77.863 103.2743
4.025255 77.928 102.7367
4.054423 77.993 102.2036
4.083804 78.057 101.6748
4.113396 78.122 101.1500
4.143204 78.186 100.6289
4.173227 78.251 100.1111
4.203468 78.315 99.5963
4.233928 78.379 99.0842
4.264609 78.444 98.5745
4.295512 78.508 98.0670
4.326639 78.573 97.5615
4.357992 78.638 97.0579
4.389572 78.703 96.5563
4.421380 78.768 96.0566
4.453419 78.833 95.5589
4.485691 78.899 95.0630
4.518196 78.965 94.5687
4.550936 79.030 94.0756
4.583914 79.096 93.5834
4.617131 79.162 93.0915
4.650589 79.229 92.5995
4.684289 79.295 92.1071
4.718233 79.361 91.6139
4.752424 79.427 91.1196
4.786862 79.494 90.6243
4.821549 79.560 90.1280
4.856488 79.627 89.6305
4.891680 79.693 89.1318
4.927127 79.760 88.6319
4.962831 79.826 88.1305
4.998794 79.892 87.6274
5.035017 79.958 87.1223
5.071503 80.024 86.6148
5.108253 80.089 86.1048
5.145270 80.154 85.5920
5.182555 80.219 85.0763
5.220110 80.283 84.5577
5.257937 80.347 84.0363
5.296038 80.410 83.5125
5.334415 80.473 82.9864
5.373071 80.535 82.4582
5.412006 80.597 81.9280
5.451224 80.657 81.3958
5.490725 80.717 80.8615
5.530514 80.776 80.3248
5.570590 80.835 79.7857
5.610957 80.892 79.2444
5.651616 80.948 78.7011
5.692570 81.004 78.1566
5.733821 81.058 77.6112
5.775370 81.112 77.0655
5.817221 81.164 76.5198
5.859375 81.215 75.9742
5.901834 81.265 75.4286
5.944602 81.314 74.8829
5.987679 81.362 74.3373
6.031068 81.409 73.7922
6.074771 81.454 73.2481
6.118792 81.499 72.7057
6.163131 81.542 72.1655
6.207792 81.585 71.6279
6.252776 81.626 71.0930
6.298086 81.666 70.5608
6.343725 81.705 70.0311
6.389694 81.743 69.5043
6.435996 81.779 68.9805
6.482634 81.815 68.4604
6.529610 81.850 67.9441
6.576926 81.884 67.4320
6.624585 81.918 66.9243
6.672590 81.950 66.4207
6.720942 81.982 65.9214
6.769645 82.012 65.4262
6.818700 82.042 64.9352
6.868111 82.072 64.4483
6.917881 82.101 63.9657
6.968010 82.129 63.4874
7.018504 82.157 63.0134
7.069362 82.184 62.5435
7.120590 82.210 62.0775
7.172189 82.236 61.6153
7.224161 82.262 61.1566
7.276511 82.287 60.7014
7.329239 82.312 60.2495
7.382350 82.336 59.8008
7.435845 82.360 59.3552
7.489729 82.384 58.9125
7.544002 82.407 58.4726
7.598669 82.430 58.0353
7.653732 82.452 57.6006
7.709194 82.474 57.1683
7.765058 82.495 56.7384
7.821327 82.516 56.3108
7.878004 82.537 55.8856
7.935091 82.557 55.4628
7.992592 82.577 55.0424
8.050510 82.596 54.6246
8.108847 82.615 54.2092
8.167607 82.634 53.7965
8.226793 82.652 53.3864
8.286408 82.670 52.9790
8.346454 82.687 52.5745
8.406936 82.704 52.1729
8.467856 82.721 51.7743
8.529218 82.738 51.3787
8.591024 82.755 50.9859
8.653278 82.771 50.5959
8.715983 82.788 50.2084
8.779143 82.805 49.8234
8.842760 82.821 49.4405
8.906839 82.839 49.0595
8.971381 82.856 48.6799
9.036392 82.874 48.3011
9.101873 82.892 47.9223
9.167829 82.910 47.5430
9.234263 82.929 47.1626
9.301178 82.949 46.7804
9.368578 82.969 46.3954
9.436467 82.989 46.0068
9.504847 83.010 45.6136
9.573723 83.032 45.2150
9.643099 83.053 44.8103
9.712976 83.075 44.3990
9.783361 83.097 43.9802
9.854255 83.119 43.5533
9.925663 83.140 43.1180
9.997588 83.161 42.6739
10.070035 83.182 42.2211
10.143007 83.201 41.7597
10.216507 83.220 41.2900
10.290540 83.238 40.8123
10.365109 83.254 40.3273
10.440219 83.268 39.8358
10.515873 83.281 39.3391
10.592076 83.292 38.8384
10.668830 83.301 38.3351
10.746141 83.309 37.8306
10.824012 83.314 37.3264
10.902447 83.317 36.8244
10.981451 83.318 36.3264
11.061027 83.317 35.8340
11.141180 83.315 35.3487
11.221913 83.311 34.8721
11.303232 83.305 34.4055
11.385140 83.298 33.9502
11.467641 83.291 33.5072
11.550741 83.283 33.0770
11.634442 83.274 32.6599
11.718750 83.266 32.2559
11.803669 83.258 31.8648
11.889203 83.251 31.4860
11.975357 83.245 31.1184
12.062136 83.239 30.7608
12.149543 83.235 30.4117
12.237583 83.233 30.0696
12.326262 83.232 29.7328
12.415583 83.232 29.3995
12.505552 83.234 29.0681
12.596172 83.238 28.7369
12.687449 83.242 28.4049
12.779387 83.248 28.0709
12.871992 83.254 27.7341
12.965268 83.261 27.3943
13.059220 83.269 27.0513
13.153852 83.277 26.7053
13.249170 83.284 26.3571
13.345179 83.292 26.0070
13.441884 83.299 25.6562
13.539289 83.307 25.3055
13.637401 83.314 24.9557
13.736223 83.321 24.6074
13.835761 83.328 24.2611
13.936021 83.335 23.9169
14.037007 83.343 23.5745
14.138725 83.351 23.2334
14.241180 83.360 22.8925
14.344377 83.369 22.5503
14.448323 83.379 22.2054
14.553021 83.389 21.8563
14.658478 83.400 21.5011
14.764700 83.411 21.1385
14.871691 83.422 20.7675
14.979457 83.431 20.3876
15.088005 83.440 19.9987
15.197339 83.447 19.6018
15.307465 83.452 19.1986
15.418389 83.454 18.7914
15.530117 83.454 18.3834
15.642655 83.450 17.9780
15.756008 83.444 17.5793
15.870182 83.434 17.1914
15.985184 83.422 16.8180
16.101019 83.408 16.4625
16.217694 83.393 16.1276
16.335214 83.377 15.8145
16.453586 83.361 15.5236
16.572815 83.345 15.2537
16.692909 83.332 15.0020
16.813872 83.321 14.7648
16.935713 83.313 14.5370
17.058436 83.308 14.3132
17.182048 83.305 14.0876
17.306556 83.306 13.8549
17.431967 83.308 13.6104
17.558286 83.312 13.3508
17.685521 83.316 13.0743
17.813677 83.320 12.7808
17.942762 83.323 12.4719
18.072783 83.324 12.1504
18.203746 83.323 11.8204
18.335658 83.320 11.4865
18.468526 83.314 11.1530
18.602356 83.306 10.8239
18.737156 83.297 10.5017
18.872934 83.288 10.1879
19.009695 83.278 9.8815
19.147447 83.270 9.5804
19.286197 83.262 9.2807
19.425953 83.256 8.9778
19.566721 83.252 8.6666
19.708510 83.247 8.3431
19.851326 83.243 8.0045
19.995177 83.237 7.6501
20.140070 83.229 7.2818
20.286013 83.217 6.9042
20.433014 83.201 6.5244
20.581080 83.181 6.1512
20.730219 83.155 5.7941
20.880439 83.127 5.4628
21.031747 83.095 5.1652
21.184152 83.063 4.9066
21.337661 83.031 4.6888
21.492282 83.003 4.5094
21.648024 82.979 4.3615
21.804895 82.962 4.2347
21.962902 82.952 4.1165
22.122054 82.948 3.9928
22.282360 82.950 3.8511
22.443827 82.957 3.6815
22.606464 82.966 3.4778
22.770280 82.975 3.2385
22.935283 82.983 2.9664
23.101481 82.988 2.6680
23.268884 82.989 2.3525
23.437500 82.985 2.0299
23.607338 82.977 1.7098
23.778406 82.965 1.3999
23.950714 82.951 1.1052
24.124271 82.935 0.8278
24.299086 82.920 0.5666
24.475167 82.904 0.3187
24.652524 82.890 0.0800
24.831166 82.876 -0.1539
25.011103 82.863 -0.3862
25.192344 82.851 -0.6196
25.374898 82.839 -0.8555
25.558775 82.827 -1.0948
25.743984 82.815 -1.3395
25.930536 82.804 -1.5922
26.118439 82.793 -1.8568
26.307704 82.783 -2.1385
26.498341 82.771 -2.4421
26.690359 82.758 -2.7703
26.883768 82.740 -3.1220
27.078579 82.717 -3.4911
27.274801 82.687 -3.8654
27.472446 82.648 -4.2274
27.671522 82.601 -4.5568
27.872042 82.547 -4.8330
28.074014 82.491 -5.0402
28.277450 82.435 -5.1710
28.482360 82.386 -5.2305
28.688755 82.348 -5.2366
28.896645 82.324 -5.2190
29.106042 82.315 -5.2136
29.316957 82.318 -5.2559
29.529400 82.331 -5.3731
29.743382 82.347 -5.5788
29.958915 82.360 -5.8704
30.176009 82.365 -6.2303
30.394677 82.359 -6.6298
30.614929 82.341 -7.0355
30.836778 82.313 -7.4155
31.060234 82.277 -7.7450
31.285309 82.237 -8.0104
31.512015 82.198 -8.2104
31.740364 82.163 -8.3539
31.970368 82.135 -8.4567
32.202039 82.113 -8.5358
32.435388 82.099 -8.6065
32.670428 82.090 -8.6797
32.907171 82.086 -8.7623
33.145630 82.087 -8.8595
33.385817 82.090 -8.9767
33.627745 82.097 -9.1208
33.871425 82.106 -9.2994
34.116871 82.114 -9.5181
34.364096 82.119 -9.7781
34.613113 82.119 -10.0735
34.863934 82.112 -10.3914
35.116572 82.095 -10.7136
35.371041 82.070 -11.0207
35.627354 82.038 -11.2963
35.885525 82.001 -11.5305
36.145566 81.963 -11.7219
36.407492 81.926 -11.8762
36.671316 81.891 -12.0041
36.937051 81.859 -12.1177
37.204712 81.831 -12.2288
37.474313 81.805 -12.3469
37.745867 81.781 -12.4795
38.019389 81.759 -12.6324
38.294893 81.737 -12.8088
38.572394 81.714 -13.0089
38.851905 81.689 -13.2285
39.133442 81.660 -13.4593
39.417019 81.628 -13.6912
39.702651 81.594 -13.9156
39.990353 81.560 -14.1288
40.280140 81.526 -14.3332
40.572026 81.493 -14.5355
40.866028 81.462 -14.7423
41.162160 81.430 -14.9551
41.460438 81.396 -15.1678
41.760877 81.360 -15.3687
42.063494 81.322 -15.5455
42.368303 81.286 -15.6917
42.675322 81.252 -15.8105
42.984565 81.222 -15.9129
43.296048 81.197 -16.0112
43.609789 81.173 -16.1129
43.925804 81.151 -16.2162
44.244108 81.127 -16.3132
44.564719 81.105 -16.3966
44.887654 81.084 -16.4665
45.212928 81.067 -16.5331
45.540560 81.054 -16.6121
45.870565 81.041 -16.7152
46.202962 81.026 -16.8436
46.537768 81.008 -16.9858
46.875000 80.985 -17.1248
47.214676 80.959 -17.2475
47.556813 80.934 -17.3538
47.901429 80.912 -17.4567
48.248542 80.892 -17.5746
48.598171 80.873 -17.7208
48.950334 80.851 -17.8956
49.305048 80.825 -18.0862
49.662333 80.794 -18.2739
50.022206 80.761 -18.4441
50.384688 80.728 -18.5923
50.749796 80.696 -18.7252
51.117550 80.668 -18.8546
51.487969 80.641 -18.9899
51.861072 80.615 -19.1332
52.236879 80.588 -19.2794
52.615409 80.560 -19.4193
52.996681 80.530 -19.5454
53.380717 80.501 -19.6549
53.767536 80.472 -19.7494
54.157158 80.444 -19.8326
54.549603 80.416 -19.9076
54.944892 80.389 -19.9750
55.343045 80.361 -20.0347
55.744084 80.333 -20.0880
56.148028 80.305 -20.1382
56.554900 80.277 -20.1902
56.964720 80.249 -20.2472
57.377510 80.220 -20.3091
57.793291 80.189 -20.3732
58.212085 80.159 -20.4370
58.633914 80.128 -20.5012
59.058799 80.099 -20.5703
59.486764 80.070 -20.6495
59.917829 80.043 -20.7422
60.352019 80.015 -20.8473
60.789354 79.986 -20.9600
61.229859 79.956 -21.0741
61.673556 79.925 -21.1834
62.120468 79.893 -21.2838
62.570618 79.861 -21.3724
63.024031 79.828 -21.4484
63.480729 79.795 -21.5104
63.940736 79.761 -21.5575
64.404077 79.727 -21.5892
64.870776 79.694 -21.6078
65.340856 79.661 -21.6191
65.814343 79.629 -21.6332
66.291261 79.598 -21.6607
66.771635 79.567 -21.7095
67.255489 79.534 -21.7810
67.742850 79.498 -21.8697
68.233743 79.461 -21.9663
68.728193 79.422 -22.0632
69.226226 79.384 -22.1587
69.727867 79.349 -22.2562
70.233144 79.315 -22.3601
70.742083 79.284 -22.4703
71.254709 79.254 -22.5814
71.771050 79.226 -22.6857
72.291132 79.199 -22.7773
72.814984 79.174 -22.8539
73.342631 79.151 -22.9155
73.874102 79.128 -22.9639
74.409424 79.106 -23.0005
74.948626 79.083 -23.0258
75.491734 79.059 -23.0398
76.038779 79.033 -23.0443
76.589787 79.005 -23.0431
77.144788 78.976 -23.0405
77.703811 78.945 -23.0393
78.266885 78.912 -23.0407
78.834039 78.879 -23.0453
79.405303 78.845 -23.0546
79.980706 78.811 -23.0704
80.560280 78.779 -23.0940
81.144053 78.747 -23.1257
81.732056 78.716 -23.1656
82.324320 78.685 -23.2125
82.920876 78.655 -23.2634
83.521755 78.625 -23.3133
84.126988 78.593 -23.3565
84.736607 78.561 -23.3889
85.350643 78.530 -23.4100
85.969129 78.499 -23.4227
86.592097 78.468 -23.4323
87.219579 78.438 -23.4437
87.851608 78.409 -23.4608
88.488217 78.378 -23.4828
89.129439 78.347 -23.5058
89.775308 78.315 -23.5236
90.425856 78.283 -23.5316
91.081119 78.251 -23.5262
91.741131 78.219 -23.5048
92.405925 78.188 -23.4668
93.075536 78.159 -23.4169
93.750000 78.130 -23.3636
94.429351 78.102 -23.3145
95.113625 78.073 -23.2731
95.802858 78.042 -23.2397
96.497085 78.010 -23.2143
97.196342 77.977 -23.1982
97.900667 77.945 -23.1941
