* Measurement data measured by REW V5.31.3
* Source: Headset (CX31993 HIFI AUDIO), MICROPHONE (Master Volume), R, volume: 0.250
* Format: 256k Log Swept Sine, 1 sweep at -12.0 dBFS with no timing reference
* Dated: 01 24, 25 8:02:43 PM
* REW Settings:
*  C-weighting compensation: Off
*  Target level: 75.0 dB
* Note: ; 
* Measurement: KZ Libra X +300 R
* Smoothing: 1/12 octave
* Frequency Step: 96 ppo
* Start Frequency: 0.36621094 Hz
*
* Freq(Hz) SPL(dB) Phase(degrees)
0.366211 43.997 -52.3581
0.368865 44.009 -52.4971
0.371538 44.028 -52.7044
0.374230 44.052 -52.9632
0.376942 44.078 -53.2588
0.379673 44.106 -53.5807
0.382424 44.136 -53.9218
0.385196 44.166 -54.2777
0.387987 44.197 -54.6460
0.390798 44.228 -55.0252
0.393630 44.259 -55.4147
0.396483 44.291 -55.8142
0.399356 44.323 -56.2235
0.402250 44.355 -56.6427
0.405165 44.387 -57.0717
0.408101 44.420 -57.5106
0.411058 44.452 -57.9595
0.414037 44.486 -58.4184
0.417037 44.519 -58.8874
0.420059 44.552 -59.3665
0.423103 44.586 -59.8558
0.426169 44.620 -60.3554
0.429257 44.655 -60.8653
0.432368 44.689 -61.3855
0.435501 44.724 -61.9160
0.438656 44.759 -62.4569
0.441835 44.794 -63.0082
0.445037 44.830 -63.5699
0.448262 44.866 -64.1419
0.451510 44.902 -64.7243
0.454782 44.938 -65.3170
0.458077 44.975 -65.9199
0.461397 45.012 -66.5332
0.464740 45.049 -67.1566
0.468108 45.086 -67.7901
0.471500 45.124 -68.4337
0.474917 45.162 -69.0873
0.478358 45.200 -69.7507
0.481825 45.239 -70.4238
0.485316 45.277 -71.1066
0.488833 45.316 -71.7989
0.492375 45.356 -72.5005
0.495943 45.395 -73.2113
0.499537 45.435 -73.9312
0.503157 45.475 -74.6599
0.506803 45.516 -75.3974
0.510475 45.557 -76.1432
0.514175 45.598 -76.8974
0.517900 45.639 -77.6596
0.521653 45.681 -78.4297
0.525434 45.723 -79.2073
0.529241 45.765 -79.9923
0.533076 45.808 -80.7844
0.536939 45.851 -81.5834
0.540830 45.894 -82.3890
0.544749 45.938 -83.2008
0.548696 45.981 -84.0188
0.552673 46.026 -84.8424
0.556677 46.070 -85.6716
0.560711 46.115 -86.5060
0.564774 46.160 -87.3452
0.568867 46.205 -88.1891
0.572989 46.251 -89.0373
0.577141 46.297 -89.8896
0.581324 46.344 -90.7457
0.585536 46.391 -91.6052
0.589779 46.438 -92.4679
0.594053 46.485 -93.3335
0.598358 46.533 -94.2018
0.602694 46.581 -95.0724
0.607061 46.630 -95.9452
0.611460 46.679 -96.8198
0.615891 46.728 -97.6960
0.620354 46.777 -98.5736
0.624849 46.827 -99.4523
0.629377 46.878 -100.3320
0.633938 46.928 -101.2123
0.638532 46.979 -102.0932
0.643159 47.031 -102.9743
0.647819 47.083 -103.8556
0.652514 47.135 -104.7369
0.657242 47.187 -105.6179
0.662005 47.240 -106.4986
0.666802 47.294 -107.3788
0.671634 47.347 -108.2584
0.676501 47.401 -109.1372
0.681403 47.456 -110.0152
0.686341 47.511 -110.8922
0.691314 47.566 -111.7682
0.696324 47.622 -112.6430
0.701370 47.679 -113.5166
0.706452 47.737 -114.3888
0.711571 47.796 -115.2594
0.716728 47.857 -116.1281
0.721921 47.921 -116.9944
0.727153 47.989 -117.8577
0.732422 48.063 -118.7168
0.737729 48.142 -119.5706
0.743075 48.227 -120.4179
0.748460 48.317 -121.2576
0.753883 48.411 -122.0888
0.759346 48.509 -122.9107
0.764849 48.610 -123.7230
0.770391 48.715 -124.5251
0.775974 48.822 -125.3170
0.781597 48.932 -126.0984
0.787261 49.044 -126.8693
0.792966 49.159 -127.6295
0.798712 49.277 -128.3792
0.804500 49.396 -129.1183
0.810329 49.519 -129.8468
0.816201 49.644 -130.5650
0.822116 49.771 -131.2730
0.828073 49.901 -131.9708
0.834074 50.033 -132.6587
0.840118 50.167 -133.3370
0.846206 50.303 -134.0057
0.852338 50.442 -134.6652
0.858514 50.583 -135.3157
0.864735 50.725 -135.9575
0.871001 50.870 -136.5909
0.877313 51.017 -137.2161
0.883670 51.166 -137.8335
0.890074 51.316 -138.4434
0.896524 51.468 -139.0462
0.903020 51.622 -139.6420
0.909564 51.777 -140.2314
0.916155 51.934 -140.8145
0.922794 52.092 -141.3918
0.929481 52.252 -141.9635
0.936216 52.413 -142.5302
0.943000 52.575 -143.0919
0.949834 52.737 -143.6492
0.956717 52.901 -144.2024
0.963649 53.066 -144.7518
0.970632 53.231 -145.2977
0.977666 53.396 -145.8405
0.984750 53.562 -146.3805
0.991886 53.728 -146.9181
0.999074 53.895 -147.4536
1.006314 54.061 -147.9874
1.013606 54.227 -148.5197
1.020951 54.392 -149.0509
1.028349 54.557 -149.5813
1.035801 54.721 -150.1112
1.043307 54.885 -150.6409
1.050867 55.047 -151.1707
1.058482 55.208 -151.7009
1.066152 55.368 -152.2314
1.073878 55.526 -152.7624
1.081660 55.682 -153.2937
1.089498 55.838 -153.8248
1.097393 55.992 -154.3553
1.105345 56.145 -154.8841
1.113355 56.297 -155.4103
1.121423 56.448 -155.9332
1.129549 56.599 -156.4521
1.137734 56.750 -156.9668
1.145979 56.901 -157.4770
1.154283 57.052 -157.9827
1.162647 57.202 -158.4841
1.171072 57.353 -158.9812
1.179558 57.503 -159.4741
1.188106 57.653 -159.9630
1.196715 57.803 -160.4481
1.205387 57.953 -160.9296
1.214122 58.103 -161.4076
1.222920 58.253 -161.8824
1.231782 58.403 -162.3541
1.240708 58.553 -162.8231
1.249699 58.703 -163.2894
1.258754 58.852 -163.7534
1.267876 59.002 -164.2152
1.277063 59.151 -164.6750
1.286318 59.301 -165.1332
1.295639 59.450 -165.5899
1.305027 59.600 -166.0453
1.314484 59.749 -166.4998
1.324009 59.899 -166.9535
1.333604 60.048 -167.4066
1.343268 60.198 -167.8595
1.353002 60.347 -168.3123
1.362806 60.497 -168.7653
1.372681 60.646 -169.2188
1.382628 60.796 -169.6728
1.392647 60.946 -170.1278
1.402739 61.096 -170.5838
1.412904 61.246 -171.0411
1.423142 61.396 -171.4996
1.433455 61.546 -171.9595
1.443843 61.696 -172.4204
1.454305 61.846 -172.8821
1.464844 61.996 -173.3438
1.475459 62.146 -173.8048
1.486150 62.296 -174.2644
1.496920 62.445 -174.7220
1.507767 62.594 -175.1772
1.518693 62.742 -175.6299
1.529698 62.890 -176.0802
1.540783 63.038 -176.5283
1.551948 63.185 -176.9745
1.563194 63.331 -177.4189
1.574521 63.477 -177.8621
1.585931 63.623 -178.3042
1.597423 63.768 -178.7457
1.608999 63.913 -179.1869
1.620658 64.057 -179.6282
1.632402 64.201 179.9300
1.644232 64.345 179.4874
1.656146 64.488 179.0436
1.668147 64.632 178.5981
1.680235 64.775 178.1508
1.692411 64.917 177.7010
1.704675 65.060 177.2484
1.717028 65.202 176.7927
1.729470 65.345 176.3335
1.742003 65.487 175.8704
1.754626 65.629 175.4030
1.767341 65.771 174.9310
1.780147 65.913 174.4542
1.793047 66.055 173.9723
1.806040 66.198 173.4854
1.819128 66.340 172.9935
1.832310 66.481 172.4971
1.845587 66.623 171.9968
1.858961 66.764 171.4932
1.872432 66.905 170.9868
1.886001 67.045 170.4783
1.899667 67.185 169.9679
1.913433 67.324 169.4559
1.927299 67.462 168.9424
1.941265 67.600 168.4277
1.955332 67.738 167.9119
1.969501 67.875 167.3948
1.983773 68.011 166.8765
1.998148 68.147 166.3570
2.012627 68.282 165.8362
2.027212 68.417 165.3141
2.041902 68.552 164.7905
2.056698 68.686 164.2653
2.071602 68.820 163.7382
2.086614 68.953 163.2092
2.101734 69.087 162.6780
2.116964 69.219 162.1443
2.132304 69.352 161.6080
2.147756 69.484 161.0687
2.163320 69.617 160.5262
2.178996 69.748 159.9802
2.194786 69.880 159.4306
2.210690 70.011 158.8772
2.226710 70.141 158.3202
2.242845 70.271 157.7595
2.259098 70.400 157.1956
2.275468 70.529 156.6286
2.291957 70.656 156.0588
2.308566 70.784 155.4867
2.325295 70.910 154.9124
2.342145 71.036 154.3362
2.359117 71.161 153.7583
2.376212 71.285 153.1789
2.393431 71.409 152.5981
2.410775 71.532 152.0161
2.428244 71.654 151.4330
2.445840 71.776 150.8486
2.463564 71.898 150.2629
2.481416 72.019 149.6760
2.499397 72.140 149.0876
2.517509 72.260 148.4973
2.535752 72.379 147.9049
2.554127 72.498 147.3098
2.572635 72.617 146.7116
2.591277 72.734 146.1097
2.610055 72.851 145.5038
2.628968 72.967 144.8941
2.648019 73.083 144.2806
2.667208 73.197 143.6638
2.686535 73.310 143.0440
2.706003 73.423 142.4218
2.725612 73.535 141.7975
2.745363 73.646 141.1717
2.765257 73.756 140.5449
2.785295 73.866 139.9172
2.805478 73.974 139.2892
2.825808 74.083 138.6610
2.846285 74.190 138.0328
2.866910 74.297 137.4044
2.887685 74.403 136.7757
2.908611 74.508 136.1461
2.929688 74.613 135.5150
2.950917 74.717 134.8817
2.972301 74.820 134.2453
2.993839 74.922 133.6055
3.015534 75.022 132.9624
3.037386 75.122 132.3162
3.059396 75.221 131.6674
3.081565 75.319 131.0167
3.103896 75.417 130.3646
3.126388 75.513 129.7119
3.149043 75.608 129.0591
3.171862 75.703 128.4071
3.194847 75.796 127.7561
3.217998 75.889 127.1065
3.241317 75.981 126.4584
3.264805 76.073 125.8116
3.288463 76.163 125.1656
3.312293 76.253 124.5195
3.336295 76.342 123.8724
3.360471 76.430 123.2239
3.384822 76.516 122.5736
3.409350 76.602 121.9217
3.434056 76.687 121.2686
3.458940 76.770 120.6148
3.484005 76.853 119.9611
3.509252 76.935 119.3080
3.534681 77.016 118.6564
3.560295 77.096 118.0068
3.586094 77.176 117.3597
3.612081 77.255 116.7152
3.638255 77.333 116.0732
3.664620 77.410 115.4333
3.691175 77.486 114.7946
3.717923 77.562 114.1566
3.744864 77.636 113.5189
3.772001 77.709 112.8811
3.799335 77.782 112.2437
3.826866 77.854 111.6069
3.854597 77.925 110.9713
3.882529 77.995 110.3375
3.910664 78.064 109.7061
3.939002 78.133 109.0776
3.967546 78.201 108.4523
3.996296 78.269 107.8304
4.025255 78.335 107.2117
4.054423 78.402 106.5959
4.083804 78.467 105.9823
4.113396 78.532 105.3705
4.143204 78.596 104.7605
4.173227 78.660 104.1521
4.203468 78.722 103.5455
4.233928 78.784 102.9410
4.264609 78.846 102.3387
4.295512 78.907 101.7391
4.326639 78.968 101.1424
4.357992 79.028 100.5486
4.389572 79.088 99.9577
4.421380 79.147 99.3696
4.453419 79.206 98.7840
4.485691 79.265 98.2005
4.518196 79.323 97.6190
4.550936 79.381 97.0393
4.583914 79.438 96.4614
4.617131 79.495 95.8853
4.650589 79.551 95.3109
4.684289 79.608 94.7383
4.718233 79.664 94.1675
4.752424 79.719 93.5984
4.786862 79.775 93.0310
4.821549 79.830 92.4649
4.856488 79.885 91.9001
4.891680 79.939 91.3364
4.927127 79.994 90.7737
4.962831 80.048 90.2117
4.998794 80.101 89.6503
5.035017 80.155 89.0895
5.071503 80.208 88.5290
5.108253 80.261 87.9688
5.145270 80.313 87.4085
5.182555 80.366 86.8483
5.220110 80.417 86.2878
5.257937 80.469 85.7271
5.296038 80.520 85.1661
5.334415 80.571 84.6049
5.373071 80.621 84.0434
5.412006 80.671 83.4815
5.451224 80.721 82.9191
5.490725 80.770 82.3561
5.530514 80.818 81.7923
5.570590 80.866 81.2275
5.610957 80.913 80.6619
5.651616 80.960 80.0956
5.692570 81.006 79.5287
5.733821 81.052 78.9615
5.775370 81.096 78.3942
5.817221 81.141 77.8270
5.859375 81.184 77.2597
5.901834 81.226 76.6922
5.944602 81.268 76.1245
5.987679 81.309 75.5568
6.031068 81.349 74.9892
6.074771 81.389 74.4223
6.118792 81.427 73.8565
6.163131 81.465 73.2922
6.207792 81.502 72.7296
6.252776 81.537 72.1688
6.298086 81.572 71.6097
6.343725 81.606 71.0525
6.389694 81.640 70.4974
6.435996 81.672 69.9448
6.482634 81.703 69.3953
6.529610 81.734 68.8493
6.576926 81.764 68.3071
6.624585 81.793 67.7690
6.672590 81.821 67.2350
6.720942 81.849 66.7051
6.769645 81.876 66.1795
6.818700 81.902 65.6584
6.868111 81.928 65.1423
6.917881 81.953 64.6314
6.968010 81.977 64.1259
7.018504 82.002 63.6258
7.069362 82.026 63.1312
7.120590 82.049 62.6419
7.172189 82.072 62.1580
7.224161 82.095 61.6792
7.276511 82.118 61.2058
7.329239 82.141 60.7375
7.382350 82.164 60.2745
7.435845 82.187 59.8165
7.489729 82.210 59.3632
7.544002 82.233 58.9142
7.598669 82.257 58.4692
7.653732 82.280 58.0278
7.709194 82.304 57.5897
7.765058 82.328 57.1547
7.821327 82.352 56.7224
7.878004 82.377 56.2924
7.935091 82.402 55.8642
7.992592 82.428 55.4371
8.050510 82.454 55.0107
8.108847 82.480 54.5846
8.167607 82.506 54.1586
8.226793 82.533 53.7322
8.286408 82.560 53.3051
8.346454 82.587 52.8767
8.406936 82.614 52.4467
8.467856 82.641 52.0147
8.529218 82.668 51.5806
8.591024 82.696 51.1443
8.653278 82.723 50.7055
8.715983 82.750 50.2642
8.779143 82.776 49.8203
8.842760 82.802 49.3737
8.906839 82.828 48.9246
8.971381 82.853 48.4731
9.036392 82.878 48.0194
9.101873 82.902 47.5639
9.167829 82.925 47.1068
9.234263 82.948 46.6484
9.301178 82.970 46.1892
9.368578 82.990 45.7296
9.436467 83.010 45.2701
9.504847 83.029 44.8114
9.573723 83.047 44.3540
9.643099 83.064 43.8984
9.712976 83.080 43.4450
9.783361 83.095 42.9946
9.854255 83.110 42.5477
9.925663 83.123 42.1048
9.997588 83.136 41.6663
10.070035 83.148 41.2327
10.143007 83.159 40.8042
10.216507 83.169 40.3812
10.290540 83.180 39.9639
10.365109 83.190 39.5525
10.440219 83.199 39.1468
10.515873 83.208 38.7469
10.592076 83.218 38.3525
10.668830 83.227 37.9634
10.746141 83.236 37.5794
10.824012 83.246 37.2000
10.902447 83.255 36.8247
10.981451 83.265 36.4530
11.061027 83.275 36.0845
11.141180 83.285 35.7185
11.221913 83.295 35.3547
11.303232 83.306 34.9925
11.385140 83.317 34.6315
11.467641 83.327 34.2714
11.550741 83.338 33.9118
11.634442 83.349 33.5528
11.718750 83.360 33.1941
11.803669 83.370 32.8358
11.889203 83.381 32.4781
11.975357 83.391 32.1209
12.062136 83.401 31.7648
12.149543 83.411 31.4098
12.237583 83.420 31.0561
12.326262 83.429 30.7041
12.415583 83.438 30.3537
12.505552 83.447 30.0052
12.596172 83.456 29.6584
12.687449 83.465 29.3129
12.779387 83.474 28.9685
12.871992 83.484 28.6246
12.965268 83.493 28.2804
13.059220 83.503 27.9351
13.153852 83.513 27.5878
13.249170 83.523 27.2374
13.345179 83.534 26.8829
13.441884 83.544 26.5237
13.539289 83.554 26.1586
13.637401 83.564 25.7874
13.736223 83.573 25.4097
13.835761 83.581 25.0255
13.936021 83.588 24.6354
14.037007 83.593 24.2401
14.138725 83.597 23.8409
14.241180 83.599 23.4393
14.344377 83.599 23.0374
14.448323 83.597 22.6369
14.553021 83.592 22.2402
14.658478 83.586 21.8497
14.764700 83.578 21.4674
14.871691 83.569 21.0950
14.979457 83.558 20.7340
15.088005 83.547 20.3855
15.197339 83.535 20.0495
15.307465 83.523 19.7258
15.418389 83.512 19.4131
15.530117 83.502 19.1099
15.642655 83.494 18.8135
15.756008 83.486 18.5212
15.870182 83.481 18.2299
15.985184 83.476 17.9363
16.101019 83.473 17.6376
16.217694 83.471 17.3310
16.335214 83.470 17.0146
16.453586 83.468 16.6874
16.572815 83.466 16.3491
16.692909 83.462 16.0004
16.813872 83.457 15.6430
16.935713 83.450 15.2795
17.058436 83.441 14.9132
17.182048 83.429 14.5479
17.306556 83.415 14.1874
17.431967 83.398 13.8357
17.558286 83.379 13.4963
17.685521 83.360 13.1723
17.813677 83.339 12.8655
17.942762 83.318 12.5770
18.072783 83.298 12.3066
18.203746 83.279 12.0529
18.335658 83.262 11.8134
18.468526 83.248 11.5848
18.602356 83.236 11.3632
18.737156 83.228 11.1440
18.872934 83.222 10.9230
19.009695 83.219 10.6959
19.147447 83.218 10.4595
19.286197 83.219 10.2112
19.425953 83.222 9.9492
19.566721 83.225 9.6730
19.708510 83.228 9.3828
19.851326 83.231 9.0799
19.995177 83.233 8.7657
20.140070 83.234 8.4424
20.286013 83.234 8.1119
20.433014 83.233 7.7763
20.581080 83.231 7.4370
20.730219 83.228 7.0953
20.880439 83.224 6.7518
21.031747 83.218 6.4069
21.184152 83.212 6.0607
21.337661 83.205 5.7133
21.492282 83.196 5.3650
21.648024 83.186 5.0170
21.804895 83.174 4.6708
21.962902 83.160 4.3291
22.122054 83.143 3.9952
22.282360 83.124 3.6736
22.443827 83.102 3.3685
22.606464 83.078 3.0845
22.770280 83.054 2.8254
22.935283 83.028 2.5941
23.101481 83.004 2.3914
23.268884 82.981 2.2162
23.437500 82.961 2.0651
23.607338 82.944 1.9329
23.778406 82.932 1.8126
23.950714 82.924 1.6963
24.124271 82.920 1.5765
24.299086 82.919 1.4463
24.475167 82.921 1.3007
24.652524 82.925 1.1364
24.831166 82.930 0.9522
25.011103 82.934 0.7488
25.192344 82.938 0.5277
25.374898 82.941 0.2908
25.558775 82.942 0.0397
25.743984 82.942 -0.2249
25.930536 82.941 -0.5027
26.118439 82.937 -0.7940
26.307704 82.931 -1.0984
26.498341 82.922 -1.4144
26.690359 82.908 -1.7386
26.883768 82.890 -2.0651
27.078579 82.868 -2.3859
27.274801 82.840 -2.6919
27.472446 82.809 -2.9740
27.671522 82.775 -3.2253
27.872042 82.741 -3.4427
28.074014 82.708 -3.6283
28.277450 82.679 -3.7892
28.482360 82.655 -3.9374
28.688755 82.635 -4.0873
28.896645 82.621 -4.2528
29.106042 82.610 -4.4446
29.316957 82.599 -4.6676
29.529400 82.587 -4.9199
29.743382 82.571 -5.1934
29.958915 82.551 -5.4752
30.176009 82.527 -5.7506
30.394677 82.499 -6.0068
30.614929 82.470 -6.2352
30.836778 82.442 -6.4337
31.060234 82.417 -6.6071
31.285309 82.396 -6.7653
31.512015 82.381 -6.9218
31.740364 82.370 -7.0895
31.970368 82.362 -7.2783
32.202039 82.356 -7.4930
32.435388 82.349 -7.7325
32.670428 82.340 -7.9908
32.907171 82.328 -8.2588
33.145630 82.312 -8.5267
33.385817 82.293 -8.7859
33.627745 82.272 -9.0310
33.871425 82.250 -9.2599
34.116871 82.228 -9.4735
34.364096 82.206 -9.6750
34.613113 82.184 -9.8680
34.863934 82.163 -10.0555
35.116572 82.141 -10.2389
35.371041 82.118 -10.4182
35.627354 82.095 -10.5920
35.885525 82.071 -10.7590
36.145566 82.046 -10.9183
36.407492 82.022 -11.0706
36.671316 81.997 -11.2180
36.937051 81.973 -11.3635
37.204712 81.950 -11.5104
37.474313 81.926 -11.6608
37.745867 81.902 -11.8155
38.019389 81.878 -11.9736
38.294893 81.853 -12.1334
38.572394 81.827 -12.2932
38.851905 81.801 -12.4517
39.133442 81.775 -12.6090
39.417019 81.750 -12.7667
39.702651 81.726 -12.9264
39.990353 81.702 -13.0900
40.280140 81.679 -13.2587
40.572026 81.657 -13.4331
40.866028 81.635 -13.6130
41.162160 81.612 -13.7979
41.460438 81.590 -13.9865
41.760877 81.567 -14.1772
42.063494 81.544 -14.3679
42.368303 81.519 -14.5559
42.675322 81.495 -14.7390
42.984565 81.469 -14.9161
43.296048 81.444 -15.0876
43.609789 81.418 -15.2548
43.925804 81.391 -15.4185
44.244108 81.362 -15.5768
44.564719 81.330 -15.7242
44.887654 81.297 -15.8518
45.212928 81.261 -15.9507
45.540560 81.226 -16.0161
45.870565 81.193 -16.0513
46.202962 81.166 -16.0698
46.537768 81.144 -16.0923
46.875000 81.127 -16.1407
47.214676 81.113 -16.2308
47.556813 81.097 -16.3666
47.901429 81.077 -16.5402
48.248542 81.052 -16.7352
48.598171 81.021 -16.9343
48.950334 80.986 -17.1238
49.305048 80.948 -17.2976
49.662333 80.910 -17.4556
50.022206 80.872 -17.6010
50.384688 80.835 -17.7373
50.749796 80.800 -17.8673
51.117550 80.767 -17.9935
51.487969 80.736 -18.1191
51.861072 80.707 -18.2474
52.236879 80.679 -18.3804
52.615409 80.651 -18.5175
52.996681 80.623 -18.6547
53.380717 80.594 -18.7865
53.767536 80.564 -18.9067
54.157158 80.534 -19.0105
54.549603 80.504 -19.0950
54.944892 80.475 -19.1604
55.343045 80.448 -19.2115
55.744084 80.424 -19.2584
56.148028 80.403 -19.3138
56.554900 80.382 -19.3892
56.964720 80.360 -19.4880
57.377510 80.334 -19.6038
57.793291 80.303 -19.7213
58.212085 80.268 -19.8232
58.633914 80.230 -19.8976
59.058799 80.192 -19.9420
59.486764 80.157 -19.9631
59.917829 80.126 -19.9724
60.352019 80.099 -19.9822
60.789354 80.076 -20.0026
61.229859 80.056 -20.0417
61.673556 80.038 -20.1041
62.120468 80.020 -20.1897
62.570618 79.999 -20.2931
63.024031 79.976 -20.4045
63.480729 79.949 -20.5133
63.940736 79.920 -20.6108
64.404077 79.888 -20.6919
64.870776 79.855 -20.7546
65.340856 79.821 -20.7990
65.814343 79.786 -20.8271
66.291261 79.752 -20.8435
66.771635 79.719 -20.8524
67.255489 79.687 -20.8572
67.742850 79.656 -20.8610
68.233743 79.627 -20.8706
68.728193 79.601 -20.8982
69.226226 79.577 -20.9563
69.727867 79.552 -21.0500
70.233144 79.524 -21.1715
70.742083 79.492 -21.3033
71.254709 79.457 -21.4279
71.771050 79.421 -21.5353
72.291132 79.385 -21.6237
72.814984 79.350 -21.6955
73.342631 79.317 -21.7538
73.874102 79.287 -21.8014
74.409424 79.258 -21.8416
74.948626 79.230 -21.8775
75.491734 79.204 -21.9117
76.038779 79.177 -21.9453
76.589787 79.150 -21.9776
77.144788 79.121 -22.0074
77.703811 79.092 -22.0331
78.266885 79.061 -22.0536
78.834039 79.029 -22.0692
79.405303 78.997 -22.0817
79.980706 78.965 -22.0940
80.560280 78.934 -22.1097
81.144053 78.903 -22.1321
81.732056 78.872 -22.1619
82.324320 78.841 -22.1971
82.920876 78.810 -22.2334
83.521755 78.780 -22.2671
84.126988 78.750 -22.2980
84.736607 78.721 -22.3290
85.350643 78.693 -22.3624
85.969129 78.665 -22.3990
86.592097 78.636 -22.4376
87.219579 78.606 -22.4761
87.851608 78.574 -22.5120
88.488217 78.541 -22.5431
89.129439 78.507 -22.5675
89.775308 78.473 -22.5842
90.425856 78.438 -22.5940
91.081119 78.403 -22.5989
91.741131 78.368 -22.6013
92.405925 78.334 -22.6006
93.075536 78.299 -22.5926
93.750000 78.263 -22.5736
94.429351 78.228 -22.5426
95.113625 78.193 -22.5002
95.802858 78.157 -22.4474
96.497085 78.122 -22.3869
97.196342 78.087 -22.3240
97.900667 78.051 -22.2642
98.610096 78.016 -22.2115
