* Measurement data measured by REW V5.31.3
* Source: Headset (CX31993 HIFI AUDIO), MICROPHONE (Master Volume), R, volume: 0.250
* Format: 256k Log Swept Sine, 1 sweep at -12.0 dBFS with no timing reference
* Dated: 01 24, 25 7:52:12 PM
* REW Settings:
*  C-weighting compensation: Off
*  Target level: 75.0 dB
* Note: ; 
* Measurement: KZ x AE Libra X R
* Smoothing: 1/12 octave
* Frequency Step: 96 ppo
* Start Frequency: 0.36621094 Hz
*
* Freq(Hz) SPL(dB) Phase(degrees)
0.366211 47.477 -68.4870
0.368865 47.495 -68.6267
0.371538 47.523 -68.8346
0.374230 47.557 -69.0932
0.376942 47.595 -69.3874
0.379673 47.636 -69.7063
0.382424 47.678 -70.0425
0.385196 47.722 -70.3915
0.387987 47.766 -70.7508
0.390798 47.811 -71.1187
0.393630 47.857 -71.4946
0.396483 47.903 -71.8780
0.399356 47.949 -72.2686
0.402250 47.995 -72.6663
0.405165 48.042 -73.0710
0.408101 48.089 -73.4828
0.411058 48.137 -73.9014
0.414037 48.185 -74.3269
0.417037 48.233 -74.7592
0.420059 48.281 -75.1982
0.423103 48.330 -75.6439
0.426169 48.380 -76.0962
0.429257 48.429 -76.5551
0.432368 48.479 -77.0204
0.435501 48.530 -77.4921
0.438656 48.580 -77.9701
0.441835 48.632 -78.4542
0.445037 48.683 -78.9445
0.448262 48.735 -79.4407
0.451510 48.787 -79.9427
0.454782 48.840 -80.4506
0.458077 48.893 -80.9641
0.461397 48.946 -81.4831
0.464740 49.000 -82.0075
0.468108 49.054 -82.5371
0.471500 49.108 -83.0719
0.474917 49.163 -83.6117
0.478358 49.219 -84.1563
0.481825 49.274 -84.7057
0.485316 49.330 -85.2596
0.488833 49.387 -85.8179
0.492375 49.444 -86.3806
0.495943 49.501 -86.9473
0.499537 49.559 -87.5181
0.503157 49.617 -88.0927
0.506803 49.676 -88.6709
0.510475 49.735 -89.2527
0.514175 49.794 -89.8380
0.517900 49.854 -90.4264
0.521653 49.915 -91.0180
0.525434 49.975 -91.6125
0.529241 50.037 -92.2098
0.533076 50.098 -92.8098
0.536939 50.160 -93.4124
0.540830 50.223 -94.0174
0.544749 50.286 -94.6246
0.548696 50.349 -95.2341
0.552673 50.413 -95.8455
0.556677 50.478 -96.4589
0.560711 50.543 -97.0741
0.564774 50.608 -97.6910
0.568867 50.674 -98.3095
0.572989 50.740 -98.9296
0.577141 50.807 -99.5510
0.581324 50.874 -100.1738
0.585536 50.942 -100.7978
0.589779 51.010 -101.4230
0.594053 51.079 -102.0493
0.598358 51.148 -102.6767
0.602694 51.218 -103.3050
0.607061 51.288 -103.9343
0.611460 51.359 -104.5646
0.615891 51.430 -105.1957
0.620354 51.502 -105.8276
0.624849 51.574 -106.4604
0.629377 51.647 -107.0940
0.633938 51.720 -107.7284
0.638532 51.794 -108.3636
0.643159 51.868 -108.9996
0.647819 51.943 -109.6365
0.652514 52.019 -110.2742
0.657242 52.095 -110.9127
0.662005 52.171 -111.5522
0.666802 52.248 -112.1926
0.671634 52.326 -112.8339
0.676501 52.404 -113.4763
0.681403 52.483 -114.1198
0.686341 52.563 -114.7644
0.691314 52.643 -115.4102
0.696324 52.723 -116.0573
0.701370 52.805 -116.7056
0.706452 52.887 -117.3552
0.711571 52.970 -118.0060
0.716728 53.054 -118.6580
0.721921 53.139 -119.3107
0.727153 53.226 -119.9637
0.732422 53.315 -120.6163
0.737729 53.406 -121.2676
0.743075 53.499 -121.9167
0.748460 53.594 -122.5627
0.753883 53.690 -123.2050
0.759346 53.789 -123.8430
0.764849 53.889 -124.4763
0.770391 53.990 -125.1048
0.775974 54.093 -125.7282
0.781597 54.197 -126.3465
0.787261 54.302 -126.9594
0.792966 54.409 -127.5671
0.798712 54.518 -128.1693
0.804500 54.627 -128.7662
0.810329 54.738 -129.3577
0.816201 54.850 -129.9439
0.822116 54.963 -130.5249
0.828073 55.078 -131.1006
0.834074 55.194 -131.6712
0.840118 55.311 -132.2367
0.846206 55.429 -132.7974
0.852338 55.549 -133.3532
0.858514 55.669 -133.9044
0.864735 55.791 -134.4511
0.871001 55.914 -134.9934
0.877313 56.038 -135.5315
0.883670 56.163 -136.0657
0.890074 56.289 -136.5960
0.896524 56.416 -137.1227
0.903020 56.544 -137.6459
0.909564 56.673 -138.1660
0.916155 56.802 -138.6831
0.922794 56.933 -139.1973
0.929481 57.064 -139.7091
0.936216 57.196 -140.2185
0.943000 57.329 -140.7258
0.949834 57.462 -141.2313
0.956717 57.597 -141.7352
0.963649 57.731 -142.2378
0.970632 57.866 -142.7393
0.977666 58.002 -143.2399
0.984750 58.138 -143.7399
0.991886 58.274 -144.2396
0.999074 58.410 -144.7393
1.006314 58.547 -145.2392
1.013606 58.684 -145.7395
1.020951 58.821 -146.2406
1.028349 58.958 -146.7426
1.035801 59.094 -147.2460
1.043307 59.231 -147.7508
1.050867 59.367 -148.2574
1.058482 59.503 -148.7659
1.066152 59.639 -149.2766
1.073878 59.774 -149.7894
1.081660 59.909 -150.3042
1.089498 60.043 -150.8208
1.097393 60.177 -151.3388
1.105345 60.311 -151.8573
1.113355 60.444 -152.3756
1.121423 60.578 -152.8930
1.129549 60.711 -153.4091
1.137734 60.845 -153.9234
1.145979 60.978 -154.4357
1.154283 61.112 -154.9459
1.162647 61.246 -155.4539
1.171072 61.379 -155.9597
1.179558 61.513 -156.4634
1.188106 61.647 -156.9649
1.196715 61.781 -157.4643
1.205387 61.916 -157.9617
1.214122 62.050 -158.4572
1.222920 62.184 -158.9507
1.231782 62.319 -159.4425
1.240708 62.454 -159.9326
1.249699 62.588 -160.4212
1.258754 62.723 -160.9083
1.267876 62.858 -161.3940
1.277063 62.993 -161.8786
1.286318 63.128 -162.3621
1.295639 63.263 -162.8447
1.305027 63.399 -163.3266
1.314484 63.534 -163.8079
1.324009 63.670 -164.2887
1.333604 63.805 -164.7692
1.343268 63.941 -165.2497
1.353002 64.077 -165.7302
1.362806 64.213 -166.2110
1.372681 64.349 -166.6922
1.382628 64.485 -167.1741
1.392647 64.621 -167.6568
1.402739 64.758 -168.1405
1.412904 64.894 -168.6253
1.423142 65.031 -169.1113
1.433455 65.168 -169.5985
1.443843 65.305 -170.0868
1.454305 65.441 -170.5760
1.464844 65.578 -171.0657
1.475459 65.715 -171.5552
1.486150 65.852 -172.0440
1.496920 65.988 -172.5317
1.507767 66.124 -173.0180
1.518693 66.260 -173.5027
1.529698 66.396 -173.9859
1.540783 66.532 -174.4677
1.551948 66.667 -174.9482
1.563194 66.802 -175.4277
1.574521 66.936 -175.9062
1.585931 67.071 -176.3842
1.597423 67.205 -176.8618
1.608999 67.339 -177.3393
1.620658 67.472 -177.8170
1.632402 67.606 -178.2952
1.644232 67.739 -178.7742
1.656146 67.872 -179.2542
1.668147 68.005 -179.7356
1.680235 68.138 179.7812
1.692411 68.271 179.2960
1.704675 68.403 178.8084
1.717028 68.536 178.3181
1.729470 68.668 177.8247
1.742003 68.800 177.3279
1.754626 68.933 176.8274
1.767341 69.065 176.3228
1.780147 69.197 175.8138
1.793047 69.329 175.3003
1.806040 69.461 174.7820
1.819128 69.593 174.2590
1.832310 69.725 173.7315
1.845587 69.857 173.1997
1.858961 69.988 172.6642
1.872432 70.119 172.1253
1.886001 70.249 171.5835
1.899667 70.379 171.0392
1.913433 70.509 170.4928
1.927299 70.638 169.9444
1.941265 70.766 169.3943
1.955332 70.894 168.8428
1.969501 71.022 168.2899
1.983773 71.149 167.7358
1.998148 71.276 167.1805
2.012627 71.402 166.6241
2.027212 71.528 166.0667
2.041902 71.654 165.5082
2.056698 71.779 164.9485
2.071602 71.904 164.3878
2.086614 72.029 163.8257
2.101734 72.153 163.2622
2.116964 72.277 162.6971
2.132304 72.401 162.1303
2.147756 72.525 161.5614
2.163320 72.648 160.9901
2.178996 72.771 160.4162
2.194786 72.894 159.8391
2.210690 73.016 159.2587
2.226710 73.138 158.6748
2.242845 73.259 158.0872
2.259098 73.379 157.4962
2.275468 73.499 156.9019
2.291957 73.618 156.3048
2.308566 73.737 155.7052
2.325295 73.855 155.1034
2.342145 73.972 154.4998
2.359117 74.089 153.8946
2.376212 74.205 153.2883
2.393431 74.320 152.6811
2.410775 74.435 152.0731
2.428244 74.549 151.4646
2.445840 74.663 150.8557
2.463564 74.776 150.2463
2.481416 74.889 149.6367
2.499397 75.002 149.0266
2.517509 75.114 148.4156
2.535752 75.225 147.8036
2.554127 75.336 147.1899
2.572635 75.446 146.5738
2.591277 75.556 145.9547
2.610055 75.665 145.3322
2.628968 75.773 144.7061
2.648019 75.880 144.0767
2.667208 75.986 143.4440
2.686535 76.092 142.8088
2.706003 76.197 142.1714
2.725612 76.301 141.5323
2.745363 76.404 140.8923
2.765257 76.507 140.2516
2.785295 76.608 139.6107
2.805478 76.710 138.9702
2.825808 76.810 138.3303
2.846285 76.910 137.6911
2.866910 77.009 137.0529
2.887685 77.108 136.4153
2.908611 77.206 135.7779
2.929688 77.303 135.1401
2.950917 77.400 134.5009
2.972301 77.496 133.8596
2.993839 77.591 133.2158
3.015534 77.684 132.5693
3.037386 77.777 131.9204
3.059396 77.869 131.2695
3.081565 77.961 130.6172
3.103896 78.051 129.9642
3.126388 78.140 129.3110
3.149043 78.229 128.6585
3.171862 78.317 128.0072
3.194847 78.404 127.3577
3.217998 78.491 126.7102
3.241317 78.577 126.0651
3.264805 78.662 125.4221
3.288463 78.747 124.7808
3.312293 78.831 124.1404
3.336295 78.914 123.5001
3.360471 78.996 122.8593
3.384822 79.077 122.2177
3.409350 79.158 121.5754
3.434056 79.237 120.9326
3.458940 79.315 120.2899
3.484005 79.393 119.6476
3.509252 79.470 119.0066
3.534681 79.547 118.3674
3.560295 79.622 117.7305
3.586094 79.697 117.0963
3.612081 79.772 116.4650
3.638255 79.846 115.8366
3.664620 79.919 115.2107
3.691175 79.992 114.5867
3.717923 80.063 113.9641
3.744864 80.134 113.3423
3.772001 80.205 112.7212
3.799335 80.274 112.1010
3.826866 80.343 111.4818
3.854597 80.411 110.8641
3.882529 80.479 110.2483
3.910664 80.546 109.6347
3.939002 80.613 109.0238
3.967546 80.679 108.4159
3.996296 80.744 107.8110
4.025255 80.810 107.2091
4.054423 80.875 106.6097
4.083804 80.939 106.0127
4.113396 81.003 105.4175
4.143204 81.066 104.8240
4.173227 81.128 104.2321
4.203468 81.191 103.6417
4.233928 81.252 103.0531
4.264609 81.314 102.4664
4.295512 81.375 101.8816
4.326639 81.435 101.2990
4.357992 81.496 100.7184
4.389572 81.556 100.1400
4.421380 81.615 99.5633
4.453419 81.675 98.9884
4.485691 81.734 98.4149
4.518196 81.793 97.8427
4.550936 81.851 97.2717
4.583914 81.909 96.7019
4.617131 81.967 96.1331
4.650589 82.024 95.5654
4.684289 82.081 94.9987
4.718233 82.138 94.4330
4.752424 82.194 93.8682
4.786862 82.250 93.3040
4.821549 82.306 92.7404
4.856488 82.362 92.1773
4.891680 82.417 91.6145
4.927127 82.472 91.0520
4.962831 82.526 90.4898
4.998794 82.580 89.9280
5.035017 82.634 89.3665
5.071503 82.688 88.8052
5.108253 82.740 88.2440
5.145270 82.793 87.6828
5.182555 82.845 87.1213
5.220110 82.896 86.5596
5.257937 82.948 85.9976
5.296038 82.998 85.4355
5.334415 83.048 84.8734
5.373071 83.098 84.3116
5.412006 83.147 83.7501
5.451224 83.195 83.1891
5.490725 83.243 82.6284
5.530514 83.290 82.0679
5.570590 83.337 81.5076
5.610957 83.382 80.9473
5.651616 83.428 80.3874
5.692570 83.472 79.8281
5.733821 83.516 79.2698
5.775370 83.559 78.7129
5.817221 83.602 78.1575
5.859375 83.644 77.6037
5.901834 83.685 77.0515
5.944602 83.725 76.5007
5.987679 83.765 75.9514
6.031068 83.804 75.4039
6.074771 83.842 74.8584
6.118792 83.880 74.3154
6.163131 83.917 73.7750
6.207792 83.954 73.2376
6.252776 83.990 72.7032
6.298086 84.025 72.1717
6.343725 84.060 71.6431
6.389694 84.094 71.1175
6.435996 84.128 70.5949
6.482634 84.161 70.0755
6.529610 84.194 69.5595
6.576926 84.227 69.0469
6.624585 84.259 68.5378
6.672590 84.291 68.0322
6.720942 84.322 67.5298
6.769645 84.353 67.0307
6.818700 84.384 66.5344
6.868111 84.415 66.0410
6.917881 84.446 65.5504
6.968010 84.476 65.0624
7.018504 84.507 64.5770
7.069362 84.537 64.0939
7.120590 84.567 63.6129
7.172189 84.597 63.1339
7.224161 84.628 62.6563
7.276511 84.658 62.1800
7.329239 84.687 61.7047
7.382350 84.717 61.2302
7.435845 84.747 60.7565
7.489729 84.776 60.2833
7.544002 84.806 59.8104
7.598669 84.835 59.3376
7.653732 84.864 58.8648
7.709194 84.893 58.3917
7.765058 84.921 57.9182
7.821327 84.949 57.4444
7.878004 84.977 56.9703
7.935091 85.004 56.4960
7.992592 85.031 56.0215
8.050510 85.057 55.5470
8.108847 85.083 55.0724
8.167607 85.108 54.5979
8.226793 85.133 54.1237
8.286408 85.157 53.6502
8.346454 85.180 53.1777
8.406936 85.203 52.7066
8.467856 85.225 52.2370
8.529218 85.246 51.7692
8.591024 85.266 51.3035
8.653278 85.286 50.8402
8.715983 85.305 50.3798
8.779143 85.324 49.9225
8.842760 85.342 49.4687
8.906839 85.359 49.0184
8.971381 85.376 48.5719
9.036392 85.393 48.1292
9.101873 85.409 47.6906
9.167829 85.425 47.2560
9.234263 85.441 46.8255
9.301178 85.456 46.3990
9.368578 85.471 45.9763
9.436467 85.487 45.5571
9.504847 85.502 45.1412
9.573723 85.517 44.7283
9.643099 85.532 44.3182
9.712976 85.548 43.9105
9.783361 85.563 43.5047
9.854255 85.578 43.1003
9.925663 85.594 42.6969
9.997588 85.610 42.2943
10.070035 85.625 41.8920
10.143007 85.641 41.4897
10.216507 85.656 41.0871
10.290540 85.672 40.6840
10.365109 85.687 40.2801
10.440219 85.702 39.8755
10.515873 85.716 39.4702
10.592076 85.730 39.0643
10.668830 85.744 38.6580
10.746141 85.757 38.2513
10.824012 85.769 37.8447
10.902447 85.781 37.4385
10.981451 85.792 37.0332
11.061027 85.803 36.6293
11.141180 85.813 36.2271
11.221913 85.822 35.8271
11.303232 85.831 35.4298
11.385140 85.839 35.0356
11.467641 85.846 34.6448
11.550741 85.853 34.2577
11.634442 85.860 33.8744
11.718750 85.866 33.4950
11.803669 85.872 33.1195
11.889203 85.878 32.7478
11.975357 85.884 32.3795
12.062136 85.891 32.0145
12.149543 85.897 31.6522
12.237583 85.903 31.2922
12.326262 85.909 30.9339
12.415583 85.916 30.5768
12.505552 85.923 30.2202
12.596172 85.930 29.8637
12.687449 85.936 29.5067
12.779387 85.943 29.1489
12.871992 85.950 28.7899
12.965268 85.957 28.4295
13.059220 85.963 28.0676
13.153852 85.969 27.7042
13.249170 85.975 27.3396
13.345179 85.980 26.9740
13.441884 85.985 26.6077
13.539289 85.989 26.2413
13.637401 85.992 25.8752
13.736223 85.995 25.5100
13.835761 85.997 25.1461
13.936021 85.999 24.7843
14.037007 86.000 24.4247
14.138725 86.000 24.0679
14.241180 86.000 23.7140
14.344377 86.000 23.3632
14.448323 86.000 23.0155
14.553021 85.999 22.6708
14.658478 85.999 22.3289
14.764700 85.998 21.9894
14.871691 85.997 21.6520
14.979457 85.996 21.3163
15.088005 85.996 20.9820
15.197339 85.995 20.6486
15.307465 85.995 20.3159
15.418389 85.994 19.9835
15.530117 85.993 19.6515
15.642655 85.992 19.3197
15.756008 85.991 18.9882
15.870182 85.990 18.6572
15.985184 85.989 18.3269
16.101019 85.987 17.9974
16.217694 85.985 17.6693
16.335214 85.983 17.3425
16.453586 85.980 17.0173
16.572815 85.978 16.6939
16.692909 85.975 16.3722
16.813872 85.972 16.0522
16.935713 85.969 15.7336
17.058436 85.966 15.4165
17.182048 85.963 15.1004
17.306556 85.960 14.7852
17.431967 85.957 14.4706
17.558286 85.954 14.1566
17.685521 85.950 13.8431
17.813677 85.946 13.5305
17.942762 85.942 13.2190
18.072783 85.938 12.9089
18.203746 85.933 12.6007
18.335658 85.928 12.2950
18.468526 85.922 11.9921
18.602356 85.916 11.6926
18.737156 85.910 11.3965
18.872934 85.904 11.1039
19.009695 85.897 10.8145
19.147447 85.891 10.5280
19.286197 85.885 10.2439
19.425953 85.879 9.9614
19.566721 85.872 9.6799
19.708510 85.866 9.3991
19.851326 85.860 9.1185
19.995177 85.853 8.8383
20.140070 85.845 8.5587
20.286013 85.838 8.2805
20.433014 85.829 8.0047
20.581080 85.820 7.7322
20.730219 85.810 7.4641
20.880439 85.800 7.2009
21.031747 85.789 6.9429
21.184152 85.779 6.6893
21.337661 85.769 6.4392
21.492282 85.760 6.1906
21.648024 85.751 5.9412
21.804895 85.742 5.6886
21.962902 85.734 5.4304
22.122054 85.725 5.1653
22.282360 85.715 4.8929
22.443827 85.704 4.6144
22.606464 85.690 4.3325
22.770280 85.674 4.0514
22.935283 85.655 3.7764
23.101481 85.634 3.5134
23.268884 85.610 3.2679
23.437500 85.585 3.0443
23.607338 85.561 2.8447
23.778406 85.538 2.6683
23.950714 85.518 2.5116
24.124271 85.501 2.3676
24.299086 85.490 2.2269
24.475167 85.483 2.0793
24.652524 85.480 1.9144
24.831166 85.480 1.7239
25.011103 85.483 1.5019
25.192344 85.485 1.2469
25.374898 85.485 0.9613
25.558775 85.482 0.6509
25.743984 85.475 0.3243
25.930536 85.464 -0.0089
26.118439 85.448 -0.3392
26.307704 85.430 -0.6593
26.498341 85.410 -0.9645
26.690359 85.388 -1.2535
26.883768 85.367 -1.5284
27.078579 85.348 -1.7932
27.274801 85.329 -2.0536
27.472446 85.312 -2.3145
27.671522 85.295 -2.5792
27.872042 85.279 -2.8488
28.074014 85.261 -3.1218
28.277450 85.242 -3.3947
28.482360 85.221 -3.6626
28.688755 85.200 -3.9213
28.896645 85.177 -4.1674
29.106042 85.155 -4.3994
29.316957 85.134 -4.6185
29.529400 85.114 -4.8274
29.743382 85.095 -5.0298
29.958915 85.078 -5.2297
30.176009 85.063 -5.4304
30.394677 85.048 -5.6338
30.614929 85.033 -5.8408
30.836778 85.019 -6.0508
31.060234 85.004 -6.2628
31.285309 84.988 -6.4757
31.512015 84.972 -6.6885
31.740364 84.956 -6.9008
31.970368 84.939 -7.1122
32.202039 84.921 -7.3225
32.435388 84.902 -7.5312
32.670428 84.883 -7.7377
32.907171 84.863 -7.9410
33.145630 84.842 -8.1407
33.385817 84.821 -8.3363
33.627745 84.800 -8.5281
33.871425 84.778 -8.7169
34.116871 84.756 -8.9037
34.364096 84.734 -9.0897
34.613113 84.712 -9.2753
34.863934 84.690 -9.4606
35.116572 84.667 -9.6454
35.371041 84.644 -9.8287
35.627354 84.621 -10.0099
35.885525 84.598 -10.1884
36.145566 84.574 -10.3641
36.407492 84.551 -10.5377
36.671316 84.529 -10.7100
36.937051 84.507 -10.8822
37.204712 84.485 -11.0554
37.474313 84.464 -11.2303
37.745867 84.443 -11.4073
38.019389 84.421 -11.5864
38.294893 84.400 -11.7668
38.572394 84.378 -11.9476
38.851905 84.356 -12.1279
39.133442 84.334 -12.3069
39.417019 84.312 -12.4841
39.702651 84.289 -12.6595
39.990353 84.266 -12.8330
40.280140 84.243 -13.0048
40.572026 84.220 -13.1749
40.866028 84.196 -13.3438
41.162160 84.173 -13.5118
41.460438 84.149 -13.6793
41.760877 84.124 -13.8468
42.063494 84.100 -14.0145
42.368303 84.074 -14.1819
42.675322 84.048 -14.3485
42.984565 84.022 -14.5135
43.296048 83.995 -14.6767
43.609789 83.968 -14.8384
43.925804 83.941 -14.9994
44.244108 83.913 -15.1603
44.564719 83.886 -15.3208
44.887654 83.857 -15.4800
45.212928 83.829 -15.6365
45.540560 83.801 -15.7897
45.870565 83.773 -15.9406
46.202962 83.745 -16.0914
46.537768 83.718 -16.2443
46.875000 83.689 -16.3989
47.214676 83.660 -16.5519
47.556813 83.630 -16.6967
47.901429 83.598 -16.8268
48.248542 83.567 -16.9388
48.598171 83.537 -17.0347
48.950334 83.510 -17.1206
49.305048 83.484 -17.2052
49.662333 83.461 -17.2949
50.022206 83.438 -17.3921
50.384688 83.414 -17.4951
50.749796 83.389 -17.6000
51.117550 83.364 -17.7034
51.487969 83.338 -17.8033
51.861072 83.311 -17.9004
52.236879 83.284 -17.9957
52.615409 83.257 -18.0903
52.996681 83.230 -18.1852
53.380717 83.202 -18.2808
53.767536 83.174 -18.3770
54.157158 83.145 -18.4735
54.549603 83.115 -18.5696
54.944892 83.085 -18.6641
55.343045 83.055 -18.7568
55.744084 83.025 -18.8480
56.148028 82.995 -18.9387
56.554900 82.966 -19.0302
56.964720 82.937 -19.1235
57.377510 82.907 -19.2189
57.793291 82.878 -19.3159
58.212085 82.848 -19.4128
58.633914 82.818 -19.5078
59.058799 82.788 -19.5986
59.486764 82.758 -19.6846
59.917829 82.728 -19.7665
60.352019 82.699 -19.8466
60.789354 82.670 -19.9263
61.229859 82.642 -20.0060
61.673556 82.613 -20.0846
62.120468 82.584 -20.1606
62.570618 82.555 -20.2335
63.024031 82.525 -20.3035
63.480729 82.496 -20.3715
63.940736 82.467 -20.4375
64.404077 82.437 -20.5013
64.870776 82.407 -20.5626
65.340856 82.377 -20.6213
65.814343 82.347 -20.6786
66.291261 82.317 -20.7356
66.771635 82.287 -20.7932
67.255489 82.257 -20.8519
67.742850 82.226 -20.9116
68.233743 82.195 -20.9717
68.728193 82.164 -21.0314
69.226226 82.133 -21.0893
69.727867 82.101 -21.1442
70.233144 82.069 -21.1951
70.742083 82.038 -21.2423
71.254709 82.007 -21.2869
71.771050 81.977 -21.3299
72.291132 81.946 -21.3715
72.814984 81.916 -21.4114
73.342631 81.886 -21.4497
73.874102 81.856 -21.4869
74.409424 81.825 -21.5237
74.948626 81.794 -21.5598
75.491734 81.762 -21.5939
76.038779 81.730 -21.6247
76.589787 81.698 -21.6522
77.144788 81.665 -21.6774
77.703811 81.633 -21.7020
78.266885 81.601 -21.7278
78.834039 81.570 -21.7559
79.405303 81.538 -21.7870
79.980706 81.506 -21.8199
80.560280 81.474 -21.8523
81.144053 81.442 -21.8815
81.732056 81.410 -21.9054
82.324320 81.378 -21.9224
82.920876 81.346 -21.9320
83.521755 81.314 -21.9354
84.126988 81.284 -21.9351
84.736607 81.253 -21.9332
85.350643 81.222 -21.9319
85.969129 81.192 -21.9319
86.592097 81.160 -21.9331
87.219579 81.129 -21.9344
87.851608 81.096 -21.9341
88.488217 81.064 -21.9313
89.129439 81.032 -21.9268
89.775308 81.000 -21.9219
90.425856 80.970 -21.9178
91.081119 80.939 -21.9148
91.741131 80.909 -21.9122
92.405925 80.880 -21.9095
93.075536 80.850 -21.9059
93.750000 80.820 -21.9011
94.429351 80.791 -21.8969
95.113625 80.760 -21.8951
95.802858 80.728 -21.8949
96.497085 80.695 -21.8908
97.196342 80.660 -21.8772
97.900667 80.625 -21.8535
