* Measurement data measured by REW V5.31.3
* Source: Headset (CX31993 HIFI AUDIO), MICROPHONE (Master Volume), R, volume: 0.400
* Format: 256k Log Swept Sine, 1 sweep at -12.0 dBFS with no timing reference
* Dated: 03 3, 25 6:30:07 PM
* REW Settings:
*  C-weighting compensation: Off
*  Target level: 75.0 dB
* Note: ; 
* Measurement: Melobuds Pro EQ R
* Smoothing: 1/12 octave
* Frequency Step: 96 ppo
* Start Frequency: 0.36621094 Hz
*
* Freq(Hz) SPL(dB) Phase(degrees)
0.366211 51.269 73.7190
0.368865 51.296 73.5773
0.371538 51.336 73.3671
0.374230 51.385 73.1068
0.376942 51.440 72.8121
0.379673 51.500 72.4946
0.382424 51.561 72.1619
0.385196 51.624 71.8187
0.387987 51.688 71.4679
0.390798 51.753 71.1109
0.393630 51.819 70.7488
0.396483 51.885 70.3820
0.399356 51.951 70.0109
0.402250 52.019 69.6357
0.405165 52.086 69.2565
0.408101 52.154 68.8735
0.411058 52.223 68.4869
0.414037 52.292 68.0968
0.417037 52.362 67.7033
0.420059 52.432 67.3064
0.423103 52.502 66.9065
0.426169 52.573 66.5035
0.429257 52.645 66.0977
0.432368 52.717 65.6891
0.435501 52.790 65.2779
0.438656 52.863 64.8642
0.441835 52.937 64.4482
0.445037 53.011 64.0299
0.448262 53.086 63.6096
0.451510 53.161 63.1873
0.454782 53.237 62.7631
0.458077 53.314 62.3373
0.461397 53.391 61.9098
0.464740 53.468 61.4809
0.468108 53.546 61.0506
0.471500 53.625 60.6191
0.474917 53.704 60.1865
0.478358 53.784 59.7529
0.481825 53.865 59.3183
0.485316 53.946 58.8830
0.488833 54.027 58.4469
0.492375 54.109 58.0102
0.495943 54.192 57.5730
0.499537 54.276 57.1354
0.503157 54.360 56.6973
0.506803 54.444 56.2590
0.510475 54.529 55.8205
0.514175 54.615 55.3818
0.517900 54.702 54.9430
0.521653 54.789 54.5042
0.525434 54.877 54.0654
0.529241 54.965 53.6266
0.533076 55.054 53.1879
0.536939 55.143 52.7494
0.540830 55.234 52.3110
0.544749 55.325 51.8728
0.548696 55.416 51.4348
0.552673 55.509 50.9970
0.556677 55.602 50.5594
0.560711 55.695 50.1221
0.564774 55.789 49.6849
0.568867 55.884 49.2480
0.572989 55.980 48.8112
0.577141 56.076 48.3746
0.581324 56.174 47.9382
0.585536 56.271 47.5019
0.589779 56.370 47.0656
0.594053 56.469 46.6294
0.598358 56.569 46.1933
0.602694 56.669 45.7570
0.607061 56.771 45.3207
0.611460 56.873 44.8842
0.615891 56.976 44.4475
0.620354 57.079 44.0105
0.624849 57.184 43.5731
0.629377 57.289 43.1353
0.633938 57.395 42.6970
0.638532 57.501 42.2580
0.643159 57.609 41.8184
0.647819 57.717 41.3780
0.652514 57.826 40.9367
0.657242 57.936 40.4944
0.662005 58.046 40.0510
0.666802 58.158 39.6065
0.671634 58.270 39.1606
0.676501 58.383 38.7133
0.681403 58.496 38.2644
0.686341 58.611 37.8139
0.691314 58.726 37.3616
0.696324 58.842 36.9074
0.701370 58.959 36.4512
0.706452 59.076 35.9930
0.711571 59.194 35.5327
0.716728 59.312 35.0703
0.721921 59.429 34.6061
0.727153 59.545 34.1404
0.732422 59.660 33.6737
0.737729 59.773 33.2067
0.743075 59.884 32.7401
0.748460 59.994 32.2746
0.753883 60.103 31.8107
0.759346 60.212 31.3487
0.764849 60.321 30.8889
0.770391 60.430 30.4314
0.775974 60.539 29.9764
0.781597 60.649 29.5239
0.787261 60.758 29.0739
0.792966 60.868 28.6266
0.798712 60.977 28.1819
0.804500 61.087 27.7398
0.810329 61.198 27.3004
0.816201 61.308 26.8635
0.822116 61.419 26.4292
0.828073 61.530 25.9974
0.834074 61.641 25.5680
0.840118 61.752 25.1411
0.846206 61.864 24.7165
0.852338 61.975 24.2942
0.858514 62.087 23.8740
0.864735 62.199 23.4560
0.871001 62.312 23.0400
0.877313 62.424 22.6259
0.883670 62.537 22.2135
0.890074 62.650 21.8028
0.896524 62.763 21.3937
0.903020 62.876 20.9861
0.909564 62.990 20.5797
0.916155 63.103 20.1745
0.922794 63.217 19.7703
0.929481 63.332 19.3669
0.936216 63.446 18.9643
0.943000 63.561 18.5622
0.949834 63.675 18.1606
0.956717 63.790 17.7591
0.963649 63.906 17.3578
0.970632 64.021 16.9563
0.977666 64.137 16.5545
0.984750 64.253 16.1523
0.991886 64.369 15.7494
0.999074 64.485 15.3457
1.006314 64.602 14.9409
1.013606 64.719 14.5349
1.020951 64.836 14.1275
1.028349 64.953 13.7184
1.035801 65.071 13.3075
1.043307 65.189 12.8945
1.050867 65.307 12.4793
1.058482 65.425 12.0616
1.066152 65.544 11.6414
1.073878 65.663 11.2185
1.081660 65.782 10.7929
1.089498 65.901 10.3646
1.097393 66.020 9.9339
1.105345 66.140 9.5010
1.113355 66.259 9.0665
1.121423 66.379 8.6306
1.129549 66.498 8.1937
1.137734 66.617 7.7560
1.145979 66.737 7.3178
1.154283 66.856 6.8791
1.162647 66.974 6.4402
1.171072 67.093 6.0011
1.179558 67.212 5.5619
1.188106 67.330 5.1227
1.196715 67.448 4.6835
1.205387 67.567 4.2445
1.214122 67.685 3.8055
1.222920 67.803 3.3667
1.231782 67.920 2.9281
1.240708 68.038 2.4898
1.249699 68.156 2.0517
1.258754 68.274 1.6138
1.267876 68.391 1.1762
1.277063 68.509 0.7389
1.286318 68.626 0.3018
1.295639 68.744 -0.1351
1.305027 68.861 -0.5718
1.314484 68.979 -1.0083
1.324009 69.096 -1.4447
1.333604 69.214 -1.8809
1.343268 69.331 -2.3171
1.353002 69.449 -2.7534
1.362806 69.567 -3.1896
1.372681 69.685 -3.6260
1.382628 69.803 -4.0626
1.392647 69.921 -4.4994
1.402739 70.040 -4.9366
1.412904 70.158 -5.3742
1.423142 70.277 -5.8122
1.433455 70.396 -6.2507
1.443843 70.515 -6.6896
1.454305 70.635 -7.1289
1.464844 70.754 -7.5685
1.475459 70.873 -8.0081
1.486150 70.993 -8.4476
1.496920 71.112 -8.8868
1.507767 71.231 -9.3255
1.518693 71.349 -9.7639
1.529698 71.468 -10.2019
1.540783 71.586 -10.6396
1.551948 71.704 -11.0770
1.563194 71.822 -11.5142
1.574521 71.939 -11.9515
1.585931 72.056 -12.3889
1.597423 72.173 -12.8266
1.608999 72.290 -13.2647
1.620658 72.406 -13.7033
1.632402 72.522 -14.1428
1.644232 72.638 -14.5832
1.656146 72.754 -15.0247
1.668147 72.870 -15.4675
1.680235 72.986 -15.9119
1.692411 73.101 -16.3579
1.704675 73.217 -16.8060
1.717028 73.332 -17.2562
1.729470 73.447 -17.7088
1.742003 73.562 -18.1641
1.754626 73.677 -18.6222
1.767341 73.792 -19.0834
1.780147 73.908 -19.5480
1.793047 74.023 -20.0161
1.806040 74.138 -20.4879
1.819128 74.253 -20.9635
1.832310 74.368 -21.4430
1.845587 74.482 -21.9263
1.858961 74.597 -22.4131
1.872432 74.711 -22.9034
1.886001 74.824 -23.3967
1.899667 74.938 -23.8929
1.913433 75.051 -24.3917
1.927299 75.163 -24.8928
1.941265 75.275 -25.3961
1.955332 75.387 -25.9012
1.969501 75.498 -26.4081
1.983773 75.609 -26.9165
1.998148 75.720 -27.4264
2.012627 75.830 -27.9375
2.027212 75.940 -28.4498
2.041902 76.050 -28.9631
2.056698 76.159 -29.4775
2.071602 76.268 -29.9930
2.086614 76.377 -30.5094
2.101734 76.485 -31.0268
2.116964 76.593 -31.5452
2.132304 76.701 -32.0649
2.147756 76.809 -32.5859
2.163320 76.917 -33.1085
2.178996 77.024 -33.6330
2.194786 77.131 -34.1598
2.210690 77.238 -34.6893
2.226710 77.344 -35.2219
2.242845 77.450 -35.7576
2.259098 77.555 -36.2966
2.275468 77.659 -36.8386
2.291957 77.763 -37.3835
2.308566 77.867 -37.9308
2.325295 77.970 -38.4804
2.342145 78.072 -39.0319
2.359117 78.174 -39.5849
2.376212 78.275 -40.1393
2.393431 78.376 -40.6946
2.410775 78.476 -41.2507
2.428244 78.576 -41.8073
2.445840 78.675 -42.3643
2.463564 78.774 -42.9215
2.481416 78.873 -43.4789
2.499397 78.971 -44.0364
2.517509 79.069 -44.5944
2.535752 79.166 -45.1530
2.554127 79.263 -45.7127
2.572635 79.359 -46.2743
2.591277 79.455 -46.8382
2.610055 79.550 -47.4050
2.628968 79.644 -47.9748
2.648019 79.738 -48.5476
2.667208 79.831 -49.1232
2.686535 79.923 -49.7012
2.706003 80.014 -50.2812
2.725612 80.105 -50.8628
2.745363 80.195 -51.4455
2.765257 80.285 -52.0289
2.785295 80.373 -52.6124
2.805478 80.462 -53.1959
2.825808 80.549 -53.7788
2.846285 80.636 -54.3611
2.866910 80.723 -54.9426
2.887685 80.809 -55.5234
2.908611 80.894 -56.1039
2.929688 80.979 -56.6847
2.950917 81.063 -57.2666
2.972301 81.147 -57.8502
2.993839 81.229 -58.4359
3.015534 81.311 -59.0239
3.037386 81.392 -59.6140
3.059396 81.472 -60.2059
3.081565 81.551 -60.7991
3.103896 81.630 -61.3930
3.126388 81.708 -61.9870
3.149043 81.785 -62.5805
3.171862 81.861 -63.1730
3.194847 81.937 -63.7640
3.217998 82.012 -64.3531
3.241317 82.087 -64.9402
3.264805 82.161 -65.5252
3.288463 82.234 -66.1087
3.312293 82.307 -66.6912
3.336295 82.379 -67.2734
3.360471 82.450 -67.8558
3.384822 82.520 -68.4388
3.409350 82.590 -69.0223
3.434056 82.658 -69.6061
3.458940 82.726 -70.1899
3.484005 82.793 -70.7730
3.509252 82.860 -71.3551
3.534681 82.925 -71.9356
3.560295 82.990 -72.5140
3.586094 83.055 -73.0900
3.612081 83.119 -73.6634
3.638255 83.183 -74.2343
3.664620 83.245 -74.8028
3.691175 83.308 -75.3696
3.717923 83.369 -75.9352
3.744864 83.430 -76.4998
3.772001 83.490 -77.0636
3.799335 83.549 -77.6266
3.826866 83.608 -78.1884
3.854597 83.666 -78.7488
3.882529 83.724 -79.3074
3.910664 83.780 -79.8637
3.939002 83.837 -80.4175
3.967546 83.893 -80.9684
3.996296 83.948 -81.5163
4.025255 84.004 -82.0613
4.054423 84.058 -82.6038
4.083804 84.112 -83.1440
4.113396 84.166 -83.6821
4.143204 84.219 -84.2185
4.173227 84.271 -84.7531
4.203468 84.323 -85.2859
4.233928 84.375 -85.8167
4.264609 84.426 -86.3455
4.295512 84.476 -86.8720
4.326639 84.527 -87.3961
4.357992 84.577 -87.9178
4.389572 84.626 -88.4370
4.421380 84.676 -88.9541
4.453419 84.725 -89.4690
4.485691 84.773 -89.9820
4.518196 84.821 -90.4932
4.550936 84.869 -91.0028
4.583914 84.917 -91.5106
4.617131 84.964 -92.0167
4.650589 85.011 -92.5211
4.684289 85.057 -93.0237
4.718233 85.103 -93.5246
4.752424 85.149 -94.0238
4.786862 85.195 -94.5214
4.821549 85.240 -95.0175
4.856488 85.285 -95.5122
4.891680 85.330 -96.0056
4.927127 85.375 -96.4978
4.962831 85.419 -96.9888
4.998794 85.463 -97.4785
5.035017 85.506 -97.9671
5.071503 85.549 -98.4545
5.108253 85.592 -98.9409
5.145270 85.635 -99.4263
5.182555 85.677 -99.9108
5.220110 85.719 -100.3944
5.257937 85.761 -100.8773
5.296038 85.802 -101.3594
5.334415 85.843 -101.8406
5.373071 85.883 -102.3209
5.412006 85.923 -102.8003
5.451224 85.963 -103.2788
5.490725 86.003 -103.7564
5.530514 86.042 -104.2332
5.570590 86.080 -104.7093
5.610957 86.118 -105.1847
5.651616 86.156 -105.6593
5.692570 86.194 -106.1331
5.733821 86.230 -106.6060
5.775370 86.267 -107.0778
5.817221 86.303 -107.5484
5.859375 86.339 -108.0179
5.901834 86.374 -108.4863
5.944602 86.409 -108.9536
5.987679 86.443 -109.4200
6.031068 86.477 -109.8852
6.074771 86.511 -110.3492
6.118792 86.544 -110.8118
6.163131 86.576 -111.2730
6.207792 86.608 -111.7326
6.252776 86.640 -112.1907
6.298086 86.671 -112.6473
6.343725 86.702 -113.1024
6.389694 86.732 -113.5560
6.435996 86.762 -114.0080
6.482634 86.792 -114.4582
6.529610 86.821 -114.9067
6.576926 86.850 -115.3533
6.624585 86.878 -115.7980
6.672590 86.906 -116.2409
6.720942 86.934 -116.6819
6.769645 86.961 -117.1210
6.818700 86.988 -117.5583
6.868111 87.015 -117.9936
6.917881 87.041 -118.4269
6.968010 87.067 -118.8582
7.018504 87.092 -119.2875
7.069362 87.117 -119.7148
7.120590 87.142 -120.1401
7.172189 87.167 -120.5635
7.224161 87.191 -120.9849
7.276511 87.215 -121.4043
7.329239 87.239 -121.8218
7.382350 87.262 -122.2373
7.435845 87.286 -122.6509
7.489729 87.309 -123.0626
7.544002 87.331 -123.4725
7.598669 87.354 -123.8806
7.653732 87.376 -124.2870
7.709194 87.398 -124.6917
7.765058 87.420 -125.0947
7.821327 87.442 -125.4961
7.878004 87.464 -125.8961
7.935091 87.485 -126.2946
7.992592 87.506 -126.6918
8.050510 87.527 -127.0877
8.108847 87.548 -127.4825
8.167607 87.569 -127.8761
8.226793 87.589 -128.2688
8.286408 87.610 -128.6605
8.346454 87.630 -129.0514
8.406936 87.650 -129.4416
8.467856 87.670 -129.8311
8.529218 87.689 -130.2199
8.591024 87.708 -130.6082
8.653278 87.727 -130.9959
8.715983 87.746 -131.3830
8.779143 87.764 -131.7695
8.842760 87.782 -132.1555
8.906839 87.800 -132.5409
8.971381 87.818 -132.9255
9.036392 87.834 -133.3093
9.101873 87.851 -133.6920
9.167829 87.867 -134.0736
9.234263 87.883 -134.4539
9.301178 87.898 -134.8327
9.368578 87.913 -135.2097
9.436467 87.927 -135.5848
9.504847 87.941 -135.9576
9.573723 87.955 -136.3279
9.643099 87.968 -136.6956
9.712976 87.981 -137.0603
9.783361 87.993 -137.4220
9.854255 88.005 -137.7803
9.925663 88.017 -138.1352
9.997588 88.029 -138.4865
10.070035 88.040 -138.8342
10.143007 88.051 -139.1784
10.216507 88.063 -139.5190
10.290540 88.074 -139.8563
10.365109 88.086 -140.1903
10.440219 88.097 -140.5213
10.515873 88.109 -140.8497
10.592076 88.121 -141.1758
10.668830 88.133 -141.4998
10.746141 88.146 -141.8224
10.824012 88.158 -142.1437
10.902447 88.171 -142.4643
10.981451 88.184 -142.7846
11.061027 88.198 -143.1049
11.141180 88.211 -143.4256
11.221913 88.225 -143.7468
11.303232 88.238 -144.0689
11.385140 88.251 -144.3919
11.467641 88.265 -144.7158
11.550741 88.278 -145.0407
11.634442 88.291 -145.3662
11.718750 88.303 -145.6923
11.803669 88.315 -146.0185
11.889203 88.327 -146.3447
11.975357 88.338 -146.6703
12.062136 88.349 -146.9949
12.149543 88.359 -147.3181
12.237583 88.369 -147.6395
12.326262 88.379 -147.9588
12.415583 88.388 -148.2757
12.505552 88.397 -148.5898
12.596172 88.405 -148.9012
12.687449 88.414 -149.2097
12.779387 88.422 -149.5155
12.871992 88.430 -149.8187
12.965268 88.439 -150.1195
13.059220 88.447 -150.4182
13.153852 88.456 -150.7151
13.249170 88.464 -151.0107
13.345179 88.473 -151.3053
13.441884 88.481 -151.5993
13.539289 88.490 -151.8928
13.637401 88.498 -152.1862
13.736223 88.507 -152.4796
13.835761 88.515 -152.7729
13.936021 88.523 -153.0660
14.037007 88.531 -153.3590
14.138725 88.538 -153.6514
14.241180 88.545 -153.9432
14.344377 88.552 -154.2339
14.448323 88.558 -154.5234
14.553021 88.564 -154.8114
14.658478 88.570 -155.0979
14.764700 88.576 -155.3828
14.871691 88.581 -155.6662
14.979457 88.587 -155.9483
15.088005 88.592 -156.2294
15.197339 88.597 -156.5098
15.307465 88.602 -156.7900
15.418389 88.607 -157.0703
15.530117 88.612 -157.3510
15.642655 88.616 -157.6324
15.756008 88.621 -157.9146
15.870182 88.624 -158.1973
15.985184 88.627 -158.4802
16.101019 88.630 -158.7628
16.217694 88.631 -159.0444
16.335214 88.632 -159.3242
16.453586 88.633 -159.6012
16.572815 88.632 -159.8745
16.692909 88.631 -160.1432
16.813872 88.630 -160.4069
16.935713 88.628 -160.6650
17.058436 88.626 -160.9175
17.182048 88.625 -161.1648
17.306556 88.624 -161.4073
17.431967 88.623 -161.6462
17.558286 88.623 -161.8824
17.685521 88.624 -162.1174
17.813677 88.625 -162.3524
17.942762 88.627 -162.5887
18.072783 88.629 -162.8273
18.203746 88.632 -163.0689
18.335658 88.634 -163.3137
18.468526 88.637 -163.5618
18.602356 88.639 -163.8127
18.737156 88.641 -164.0659
18.872934 88.643 -164.3204
19.009695 88.644 -164.5754
19.147447 88.644 -164.8302
19.286197 88.645 -165.0841
19.425953 88.645 -165.3370
19.566721 88.645 -165.5887
19.708510 88.644 -165.8395
19.851326 88.644 -166.0898
19.995177 88.644 -166.3399
20.140070 88.643 -166.5901
20.286013 88.642 -166.8404
20.433014 88.641 -167.0905
20.581080 88.639 -167.3393
20.730219 88.637 -167.5859
20.880439 88.634 -167.8288
21.031747 88.631 -168.0666
21.184152 88.627 -168.2982
21.337661 88.624 -168.5229
21.492282 88.621 -168.7410
21.648024 88.618 -168.9535
21.804895 88.617 -169.1624
21.962902 88.617 -169.3705
22.122054 88.618 -169.5811
22.282360 88.621 -169.7974
22.443827 88.624 -170.0224
22.606464 88.627 -170.2578
22.770280 88.630 -170.5044
22.935283 88.631 -170.7612
23.101481 88.631 -171.0260
23.268884 88.628 -171.2952
23.437500 88.623 -171.5645
23.607338 88.615 -171.8295
23.778406 88.605 -172.0864
23.950714 88.594 -172.3324
24.124271 88.581 -172.5660
24.299086 88.568 -172.7875
24.475167 88.556 -172.9986
24.652524 88.544 -173.2019
24.831166 88.532 -173.4006
25.011103 88.522 -173.5974
25.192344 88.511 -173.7945
25.374898 88.501 -173.9930
25.558775 88.490 -174.1928
25.743984 88.479 -174.3930
25.930536 88.467 -174.5924
26.118439 88.455 -174.7902
26.307704 88.444 -174.9859
26.498341 88.432 -175.1805
26.690359 88.421 -175.3754
26.883768 88.411 -175.5729
27.078579 88.402 -175.7753
27.274801 88.393 -175.9841
27.472446 88.384 -176.2002
27.671522 88.375 -176.4233
27.872042 88.365 -176.6521
28.074014 88.355 -176.8853
28.277450 88.345 -177.1219
28.482360 88.334 -177.3617
28.688755 88.324 -177.6057
28.896645 88.314 -177.8552
29.106042 88.304 -178.1118
29.316957 88.293 -178.3758
29.529400 88.280 -178.6454
29.743382 88.266 -178.9168
29.958915 88.250 -179.1839
30.176009 88.232 -179.4398
30.394677 88.212 -179.6785
30.614929 88.193 -179.8959
30.836778 88.174 179.9084
31.060234 88.158 179.7311
31.285309 88.144 179.5660
31.512015 88.134 179.4061
31.740364 88.127 179.2450
31.970368 88.121 179.0790
32.202039 88.116 178.9077
32.435388 88.112 178.7328
32.670428 88.107 178.5569
32.907171 88.103 178.3817
33.145630 88.099 178.2060
33.385817 88.096 178.0264
33.627745 88.093 177.8383
33.871425 88.090 177.6384
34.116871 88.084 177.4272
34.364096 88.075 177.2098
34.613113 88.062 176.9955
34.863934 88.044 176.7949
35.116572 88.023 176.6164
35.371041 88.001 176.4637
35.627354 87.980 176.3340
35.885525 87.960 176.2198
36.145566 87.942 176.1120
36.407492 87.925 176.0037
36.671316 87.908 175.8929
36.937051 87.891 175.7817
37.204712 87.873 175.6741
37.474313 87.856 175.5714
37.745867 87.841 175.4695
38.019389 87.829 175.3588
38.294893 87.819 175.2284
38.572394 87.808 175.0712
38.851905 87.796 174.8894
39.133442 87.779 174.6947
39.417019 87.757 174.5048
39.702651 87.733 174.3356
39.990353 87.709 174.1935
40.280140 87.688 174.0711
40.572026 87.671 173.9504
40.866028 87.658 173.8106
41.162160 87.647 173.6392
41.460438 87.632 173.4393
41.760877 87.612 173.2291
42.063494 87.585 173.0354
42.368303 87.555 172.8809
42.675322 87.525 172.7737
42.984565 87.501 172.7030
43.296048 87.485 172.6431
43.609789 87.476 172.5639
43.925804 87.471 172.4434
44.244108 87.466 172.2752
44.564719 87.456 172.0691
44.887654 87.441 171.8445
45.212928 87.420 171.6222
45.540560 87.395 171.4169
45.870565 87.367 171.2349
46.202962 87.339 171.0749
46.537768 87.312 170.9319
46.875000 87.286 170.8009
47.214676 87.261 170.6793
47.556813 87.236 170.5664
47.901429 87.212 170.4628
48.248542 87.189 170.3685
48.598171 87.166 170.2826
48.950334 87.145 170.2035
49.305048 87.125 170.1292
49.662333 87.105 170.0587
50.022206 87.085 169.9915
50.384688 87.066 169.9274
50.749796 87.046 169.8660
51.117550 87.025 169.8059
51.487969 87.004 169.7456
51.861072 86.982 169.6840
52.236879 86.959 169.6210
52.615409 86.935 169.5568
52.996681 86.910 169.4909
53.380717 86.885 169.4214
53.767536 86.859 169.3454
54.157158 86.834 169.2609
54.549603 86.808 169.1690
54.944892 86.781 169.0731
55.343045 86.756 168.9769
55.744084 86.732 168.8816
56.148028 86.710 168.7849
56.554900 86.692 168.6825
56.964720 86.675 168.5714
57.377510 86.660 168.4512
57.793291 86.645 168.3247
58.212085 86.630 168.1975
58.633914 86.613 168.0774
59.058799 86.594 167.9741
59.486764 86.572 167.8971
59.917829 86.550 167.8523
60.352019 86.527 167.8384
60.789354 86.506 167.8474
61.229859 86.485 167.8678
61.673556 86.464 167.8897
62.120468 86.443 167.9075
62.570618 86.421 167.9192
63.024031 86.399 167.9235
63.480729 86.378 167.9168
63.940736 86.358 167.8918
64.404077 86.342 167.8382
64.870776 86.328 167.7468
65.340856 86.317 167.6126
65.814343 86.307 167.4334
66.291261 86.300 167.2054
66.771635 86.291 166.9250
67.255489 86.276 166.6011
67.742850 86.250 166.2703
68.233743 86.211 165.9964
68.728193 86.163 165.8435
69.226226 86.118 165.8376
69.727867 86.085 165.9475
70.233144 86.067 166.1051
70.742083 86.060 166.2478
71.254709 86.058 166.3475
71.771050 86.054 166.4083
72.291132 86.045 166.4460
72.814984 86.032 166.4728
73.342631 86.014 166.4934
73.874102 85.994 166.5071
74.409424 85.971 166.5090
74.948626 85.949 166.4934
75.491734 85.925 166.4568
76.038779 85.902 166.4006
76.589787 85.879 166.3290
77.144788 85.857 166.2467
77.703811 85.835 166.1580
78.266885 85.815 166.0671
78.834039 85.795 165.9788
79.405303 85.775 165.8975
79.980706 85.756 165.8260
80.560280 85.737 165.7643
81.144053 85.717 165.7104
81.732056 85.697 165.6613
82.324320 85.676 165.6140
82.920876 85.654 165.5658
83.521755 85.631 165.5145
84.126988 85.608 165.4589
84.736607 85.583 165.3999
85.350643 85.559 165.3386
85.969129 85.535 165.2755
86.592097 85.512 165.2101
87.219579 85.489 165.1424
87.851608 85.467 165.0729
88.488217 85.444 165.0040
89.129439 85.420 164.9395
89.775308 85.395 164.8849
90.425856 85.368 164.8445
91.081119 85.342 164.8170
91.741131 85.316 164.7945
92.405925 85.291 164.7656
