* Measurement data measured by REW V5.31.3
* Source: Headset (2- CX31993 HIFI AUDIO), MICROPHONE (Master Volume), R, volume: 0.250
* Format: 256k Log Swept Sine, 1 sweep at -12.0 dBFS with no timing reference
* Dated: 12 17, 24 9:20:57 AM
* REW Settings:
*  C-weighting compensation: Off
*  Target level: 75.0 dB
* Note: ; 
* Measurement: Moondrop Blessing 2 S2 L
* Smoothing: 1/12 octave
* Frequency Step: 96 ppo
* Start Frequency: 0.36621094 Hz
*
* Freq(Hz) SPL(dB) Phase(degrees)
0.366211 45.325 -54.5024
0.368865 45.335 -54.6131
0.371538 45.349 -54.7783
0.374230 45.366 -54.9847
0.376942 45.386 -55.2206
0.379673 45.407 -55.4778
0.382424 45.429 -55.7505
0.385196 45.451 -56.0355
0.387987 45.474 -56.3308
0.390798 45.497 -56.6352
0.393630 45.521 -56.9483
0.396483 45.544 -57.2698
0.399356 45.568 -57.5996
0.402250 45.592 -57.9378
0.405165 45.616 -58.2842
0.408101 45.640 -58.6390
0.411058 45.665 -59.0023
0.414037 45.690 -59.3741
0.417037 45.714 -59.7544
0.420059 45.739 -60.1434
0.423103 45.765 -60.5410
0.426169 45.790 -60.9473
0.429257 45.816 -61.3625
0.432368 45.841 -61.7864
0.435501 45.867 -62.2191
0.438656 45.893 -62.6608
0.441835 45.920 -63.1113
0.445037 45.946 -63.5708
0.448262 45.973 -64.0392
0.451510 46.000 -64.5165
0.454782 46.027 -65.0028
0.458077 46.054 -65.4981
0.461397 46.082 -66.0023
0.464740 46.109 -66.5153
0.468108 46.137 -67.0373
0.471500 46.165 -67.5682
0.474917 46.194 -68.1078
0.478358 46.222 -68.6562
0.481825 46.251 -69.2134
0.485316 46.280 -69.7792
0.488833 46.309 -70.3535
0.492375 46.338 -70.9364
0.495943 46.368 -71.5277
0.499537 46.398 -72.1273
0.503157 46.427 -72.7351
0.506803 46.458 -73.3511
0.510475 46.488 -73.9750
0.514175 46.519 -74.6067
0.517900 46.550 -75.2462
0.521653 46.581 -75.8932
0.525434 46.612 -76.5477
0.529241 46.643 -77.2094
0.533076 46.675 -77.8782
0.536939 46.707 -78.5540
0.540830 46.739 -79.2364
0.544749 46.772 -79.9255
0.548696 46.805 -80.6208
0.552673 46.837 -81.3224
0.556677 46.871 -82.0299
0.560711 46.904 -82.7432
0.564774 46.938 -83.4620
0.568867 46.972 -84.1861
0.572989 47.006 -84.9154
0.577141 47.040 -85.6495
0.581324 47.075 -86.3884
0.585536 47.110 -87.1316
0.589779 47.145 -87.8791
0.594053 47.180 -88.6307
0.598358 47.216 -89.3860
0.602694 47.252 -90.1448
0.607061 47.288 -90.9071
0.611460 47.324 -91.6724
0.615891 47.361 -92.4408
0.620354 47.398 -93.2118
0.624849 47.435 -93.9853
0.629377 47.473 -94.7612
0.633938 47.510 -95.5392
0.638532 47.548 -96.3192
0.643159 47.587 -97.1010
0.647819 47.625 -97.8843
0.652514 47.664 -98.6691
0.657242 47.703 -99.4553
0.662005 47.743 -100.2425
0.666802 47.783 -101.0308
0.671634 47.823 -101.8200
0.676501 47.863 -102.6100
0.681403 47.904 -103.4007
0.686341 47.944 -104.1919
0.691314 47.986 -104.9837
0.696324 48.028 -105.7759
0.701370 48.070 -106.5685
0.706452 48.113 -107.3615
0.711571 48.157 -108.1547
0.716728 48.203 -108.9481
0.721921 48.251 -109.7417
0.727153 48.303 -110.5354
0.732422 48.358 -111.3289
0.737729 48.419 -112.1220
0.743075 48.484 -112.9143
0.748460 48.554 -113.7055
0.753883 48.626 -114.4951
0.759346 48.702 -115.2826
0.764849 48.781 -116.0676
0.770391 48.861 -116.8497
0.775974 48.944 -117.6285
0.781597 49.030 -118.4036
0.787261 49.117 -119.1747
0.792966 49.206 -119.9415
0.798712 49.297 -120.7035
0.804500 49.390 -121.4606
0.810329 49.485 -122.2126
0.816201 49.582 -122.9591
0.822116 49.681 -123.7001
0.828073 49.782 -124.4352
0.834074 49.885 -125.1644
0.840118 49.989 -125.8874
0.846206 50.096 -126.6043
0.852338 50.204 -127.3149
0.858514 50.313 -128.0192
0.864735 50.425 -128.7170
0.871001 50.538 -129.4084
0.877313 50.653 -130.0934
0.883670 50.769 -130.7719
0.890074 50.886 -131.4441
0.896524 51.006 -132.1099
0.903020 51.126 -132.7693
0.909564 51.248 -133.4226
0.916155 51.371 -134.0697
0.922794 51.495 -134.7108
0.929481 51.621 -135.3459
0.936216 51.748 -135.9752
0.943000 51.875 -136.5989
0.949834 52.004 -137.2171
0.956717 52.133 -137.8299
0.963649 52.263 -138.4376
0.970632 52.394 -139.0402
0.977666 52.525 -139.6380
0.984750 52.657 -140.2312
0.991886 52.789 -140.8199
0.999074 52.921 -141.4044
1.006314 53.054 -141.9849
1.013606 53.187 -142.5616
1.020951 53.319 -143.1347
1.028349 53.452 -143.7045
1.035801 53.584 -144.2711
1.043307 53.715 -144.8348
1.050867 53.846 -145.3959
1.058482 53.977 -145.9545
1.066152 54.106 -146.5108
1.073878 54.235 -147.0650
1.081660 54.363 -147.6172
1.089498 54.491 -148.1675
1.097393 54.617 -148.7157
1.105345 54.743 -149.2617
1.113355 54.869 -149.8052
1.121423 54.995 -150.3461
1.129549 55.121 -150.8841
1.137734 55.247 -151.4192
1.145979 55.374 -151.9511
1.154283 55.501 -152.4800
1.162647 55.628 -153.0057
1.171072 55.755 -153.5282
1.179558 55.883 -154.0475
1.188106 56.011 -154.5636
1.196715 56.140 -155.0766
1.205387 56.268 -155.5863
1.214122 56.397 -156.0929
1.222920 56.527 -156.5964
1.231782 56.656 -157.0968
1.240708 56.786 -157.5941
1.249699 56.916 -158.0883
1.258754 57.047 -158.5795
1.267876 57.177 -159.0677
1.277063 57.308 -159.5531
1.286318 57.439 -160.0355
1.295639 57.571 -160.5151
1.305027 57.702 -160.9919
1.314484 57.834 -161.4659
1.324009 57.966 -161.9373
1.333604 58.098 -162.4061
1.343268 58.230 -162.8723
1.353002 58.362 -163.3360
1.362806 58.495 -163.7973
1.372681 58.627 -164.2563
1.382628 58.760 -164.7129
1.392647 58.893 -165.1673
1.402739 59.025 -165.6195
1.412904 59.158 -166.0696
1.423142 59.291 -166.5176
1.433455 59.424 -166.9634
1.443843 59.557 -167.4070
1.454305 59.690 -167.8483
1.464844 59.822 -168.2870
1.475459 59.955 -168.7229
1.486150 60.087 -169.1557
1.496920 60.219 -169.5853
1.507767 60.351 -170.0117
1.518693 60.482 -170.4350
1.529698 60.614 -170.8553
1.540783 60.745 -171.2727
1.551948 60.876 -171.6875
1.563194 61.006 -172.0999
1.574521 61.137 -172.5103
1.585931 61.267 -172.9187
1.597423 61.397 -173.3255
1.608999 61.527 -173.7310
1.620658 61.657 -174.1354
1.632402 61.786 -174.5389
1.644232 61.916 -174.9418
1.656146 62.045 -175.3444
1.668147 62.174 -175.7469
1.680235 62.303 -176.1496
1.692411 62.433 -176.5527
1.704675 62.562 -176.9565
1.717028 62.691 -177.3612
1.729470 62.820 -177.7671
1.742003 62.949 -178.1744
1.754626 63.079 -178.5833
1.767341 63.208 -178.9941
1.780147 63.338 -179.4068
1.793047 63.467 -179.8216
1.806040 63.597 179.7615
1.819128 63.727 179.3427
1.832310 63.857 178.9222
1.845587 63.986 178.5005
1.858961 64.116 178.0779
1.872432 64.245 177.6547
1.886001 64.374 177.2312
1.899667 64.503 176.8076
1.913433 64.631 176.3839
1.927299 64.759 175.9603
1.941265 64.887 175.5366
1.955332 65.014 175.1128
1.969501 65.141 174.6890
1.983773 65.268 174.2650
1.998148 65.395 173.8407
2.012627 65.521 173.4162
2.027212 65.648 172.9912
2.041902 65.774 172.5657
2.056698 65.900 172.1395
2.071602 66.026 171.7126
2.086614 66.151 171.2849
2.101734 66.277 170.8561
2.116964 66.403 170.4261
2.132304 66.529 169.9950
2.147756 66.654 169.5624
2.163320 66.780 169.1285
2.178996 66.906 168.6931
2.194786 67.031 168.2562
2.210690 67.156 167.8182
2.226710 67.282 167.3790
2.242845 67.406 166.9388
2.259098 67.531 166.4979
2.275468 67.655 166.0561
2.291957 67.779 165.6137
2.308566 67.902 165.1706
2.325295 68.025 164.7267
2.342145 68.148 164.2822
2.359117 68.270 163.8369
2.376212 68.393 163.3907
2.393431 68.515 162.9437
2.410775 68.636 162.4956
2.428244 68.758 162.0464
2.445840 68.879 161.5960
2.463564 69.000 161.1442
2.481416 69.121 160.6910
2.499397 69.241 160.2362
2.517509 69.362 159.7797
2.535752 69.482 159.3213
2.554127 69.602 158.8611
2.572635 69.722 158.3990
2.591277 69.842 157.9350
2.610055 69.961 157.4692
2.628968 70.080 157.0017
2.648019 70.199 156.5326
2.667208 70.317 156.0620
2.686535 70.434 155.5899
2.706003 70.551 155.1163
2.725612 70.668 154.6414
2.745363 70.785 154.1651
2.765257 70.901 153.6874
2.785295 71.016 153.2083
2.805478 71.132 152.7277
2.825808 71.247 152.2455
2.846285 71.361 151.7617
2.866910 71.476 151.2761
2.887685 71.590 150.7885
2.908611 71.704 150.2989
2.929688 71.817 149.8070
2.950917 71.930 149.3126
2.972301 72.043 148.8157
2.993839 72.155 148.3163
3.015534 72.266 147.8145
3.037386 72.377 147.3104
3.059396 72.488 146.8042
3.081565 72.598 146.2961
3.103896 72.707 145.7863
3.126388 72.816 145.2750
3.149043 72.925 144.7623
3.171862 73.033 144.2482
3.194847 73.140 143.7330
3.217998 73.247 143.2164
3.241317 73.354 142.6986
3.264805 73.460 142.1793
3.288463 73.566 141.6582
3.312293 73.671 141.1351
3.336295 73.775 140.6097
3.360471 73.879 140.0818
3.384822 73.982 139.5515
3.409350 74.085 139.0188
3.434056 74.187 138.4841
3.458940 74.288 137.9476
3.484005 74.389 137.4096
3.509252 74.489 136.8704
3.534681 74.588 136.3302
3.560295 74.687 135.7893
3.586094 74.785 135.2476
3.612081 74.882 134.7051
3.638255 74.979 134.1617
3.664620 75.076 133.6169
3.691175 75.171 133.0703
3.717923 75.266 132.5216
3.744864 75.360 131.9707
3.772001 75.453 131.4177
3.799335 75.545 130.8630
3.826866 75.637 130.3068
3.854597 75.728 129.7498
3.882529 75.818 129.1923
3.910664 75.907 128.6348
3.939002 75.996 128.0776
3.967546 76.084 127.5208
3.996296 76.171 126.9645
4.025255 76.258 126.4083
4.054423 76.343 125.8518
4.083804 76.428 125.2946
4.113396 76.512 124.7365
4.143204 76.595 124.1776
4.173227 76.677 123.6180
4.203468 76.759 123.0582
4.233928 76.839 122.4989
4.264609 76.919 121.9404
4.295512 76.998 121.3832
4.326639 77.076 120.8277
4.357992 77.154 120.2739
4.389572 77.230 119.7217
4.421380 77.306 119.1708
4.453419 77.382 118.6208
4.485691 77.456 118.0715
4.518196 77.529 117.5229
4.550936 77.602 116.9752
4.583914 77.674 116.4288
4.617131 77.745 115.8843
4.650589 77.816 115.3420
4.684289 77.885 114.8024
4.718233 77.955 114.2657
4.752424 78.023 113.7319
4.786862 78.091 113.2008
4.821549 78.159 112.6723
4.856488 78.226 112.1460
4.891680 78.292 111.6219
4.927127 78.357 111.1001
4.962831 78.422 110.5807
4.998794 78.487 110.0639
5.035017 78.551 109.5500
5.071503 78.614 109.0393
5.108253 78.678 108.5318
5.145270 78.741 108.0275
5.182555 78.803 107.5262
5.220110 78.866 107.0278
5.257937 78.928 106.5320
5.296038 78.989 106.0387
5.334415 79.051 105.5477
5.373071 79.112 105.0590
5.412006 79.173 104.5726
5.451224 79.234 104.0883
5.490725 79.295 103.6061
5.530514 79.356 103.1261
5.570590 79.416 102.6480
5.610957 79.477 102.1717
5.651616 79.537 101.6968
5.692570 79.598 101.2231
5.733821 79.658 100.7502
5.775370 79.719 100.2778
5.817221 79.779 99.8058
5.859375 79.840 99.3338
5.901834 79.900 98.8618
5.944602 79.961 98.3897
5.987679 80.021 97.9173
6.031068 80.081 97.4445
6.074771 80.142 96.9708
6.118792 80.202 96.4960
6.163131 80.262 96.0198
6.207792 80.321 95.5419
6.252776 80.381 95.0622
6.298086 80.440 94.5806
6.343725 80.500 94.0970
6.389694 80.559 93.6114
6.435996 80.617 93.1239
6.482634 80.675 92.6345
6.529610 80.733 92.1430
6.576926 80.790 91.6494
6.624585 80.847 91.1536
6.672590 80.903 90.6555
6.720942 80.958 90.1555
6.769645 81.013 89.6536
6.818700 81.067 89.1502
6.868111 81.121 88.6458
6.917881 81.174 88.1404
6.968010 81.225 87.6343
7.018504 81.276 87.1276
7.069362 81.326 86.6203
7.120590 81.375 86.1129
7.172189 81.424 85.6058
7.224161 81.471 85.0998
7.276511 81.518 84.5951
7.329239 81.563 84.0922
7.382350 81.608 83.5913
7.435845 81.652 83.0925
7.489729 81.695 82.5962
7.544002 81.737 82.1028
7.598669 81.778 81.6128
7.653732 81.819 81.1266
7.709194 81.859 80.6445
7.765058 81.899 80.1667
7.821327 81.937 79.6933
7.878004 81.976 79.2243
7.935091 82.013 78.7599
7.992592 82.051 78.3002
8.050510 82.088 77.8454
8.108847 82.125 77.3955
8.167607 82.162 76.9504
8.226793 82.199 76.5099
8.286408 82.235 76.0737
8.346454 82.272 75.6417
8.406936 82.308 75.2135
8.467856 82.345 74.7890
8.529218 82.382 74.3678
8.591024 82.419 73.9497
8.653278 82.457 73.5342
8.715983 82.494 73.1207
8.779143 82.532 72.7090
8.842760 82.570 72.2985
8.906839 82.609 71.8890
8.971381 82.647 71.4802
9.036392 82.686 71.0716
9.101873 82.725 70.6628
9.167829 82.764 70.2535
9.234263 82.803 69.8435
9.301178 82.842 69.4326
9.368578 82.881 69.0205
9.436467 82.920 68.6072
9.504847 82.959 68.1926
9.573723 82.997 67.7766
9.643099 83.036 67.3591
9.712976 83.074 66.9402
9.783361 83.112 66.5200
9.854255 83.149 66.0987
9.925663 83.186 65.6763
9.997588 83.223 65.2531
10.070035 83.259 64.8290
10.143007 83.294 64.4045
10.216507 83.329 63.9798
10.290540 83.364 63.5549
10.365109 83.398 63.1302
10.440219 83.431 62.7059
10.515873 83.464 62.2821
10.592076 83.496 61.8591
10.668830 83.528 61.4372
10.746141 83.559 61.0165
10.824012 83.589 60.5972
10.902447 83.619 60.1795
10.981451 83.649 59.7636
11.061027 83.677 59.3497
11.141180 83.706 58.9379
11.221913 83.733 58.5285
11.303232 83.761 58.1216
11.385140 83.787 57.7174
11.467641 83.814 57.3160
11.550741 83.839 56.9176
11.634442 83.865 56.5222
11.718750 83.890 56.1301
11.803669 83.914 55.7412
11.889203 83.939 55.3556
11.975357 83.963 54.9734
12.062136 83.987 54.5945
12.149543 84.011 54.2189
12.237583 84.034 53.8464
12.326262 84.058 53.4770
12.415583 84.081 53.1103
12.505552 84.104 52.7462
12.596172 84.128 52.3845
12.687449 84.151 52.0248
12.779387 84.174 51.6667
12.871992 84.198 51.3099
12.965268 84.221 50.9542
13.059220 84.245 50.5991
13.153852 84.268 50.2442
13.249170 84.292 49.8894
13.345179 84.315 49.5344
13.441884 84.338 49.1789
13.539289 84.361 48.8229
13.637401 84.384 48.4662
13.736223 84.406 48.1090
13.835761 84.428 47.7512
13.936021 84.450 47.3931
14.037007 84.470 47.0349
14.138725 84.491 46.6769
14.241180 84.511 46.3195
14.344377 84.530 45.9632
14.448323 84.548 45.6083
14.553021 84.566 45.2555
14.658478 84.584 44.9051
14.764700 84.601 44.5576
14.871691 84.617 44.2135
14.979457 84.633 43.8731
15.088005 84.648 43.5368
15.197339 84.663 43.2047
15.307465 84.678 42.8766
15.418389 84.694 42.5527
15.530117 84.709 42.2325
15.642655 84.724 41.9155
15.756008 84.739 41.6012
15.870182 84.755 41.2887
15.985184 84.772 40.9771
16.101019 84.788 40.6655
16.217694 84.805 40.3528
16.335214 84.822 40.0381
16.453586 84.839 39.7207
16.572815 84.856 39.3998
16.692909 84.873 39.0751
16.813872 84.890 38.7467
16.935713 84.905 38.4149
17.058436 84.920 38.0803
17.182048 84.934 37.7441
17.306556 84.946 37.4077
17.431967 84.957 37.0728
17.558286 84.967 36.7411
17.685521 84.975 36.4146
17.813677 84.983 36.0948
17.942762 84.989 35.7834
18.072783 84.995 35.4813
18.203746 85.001 35.1891
18.335658 85.007 34.9066
18.468526 85.013 34.6334
18.602356 85.021 34.3680
18.737156 85.029 34.1088
18.872934 85.039 33.8537
19.009695 85.049 33.6003
19.147447 85.062 33.3464
19.286197 85.075 33.0898
19.425953 85.089 32.8286
19.566721 85.104 32.5617
19.708510 85.119 32.2881
19.851326 85.135 32.0075
19.995177 85.150 31.7200
20.140070 85.165 31.4261
20.286013 85.179 31.1264
20.433014 85.192 30.8217
20.581080 85.204 30.5129
20.730219 85.216 30.2007
20.880439 85.226 29.8861
21.031747 85.236 29.5701
21.184152 85.243 29.2538
21.337661 85.250 28.9391
21.492282 85.255 28.6280
21.648024 85.258 28.3229
21.804895 85.260 28.0269
21.962902 85.260 27.7429
22.122054 85.260 27.4736
22.282360 85.260 27.2212
22.443827 85.260 26.9863
22.606464 85.262 26.7681
22.770280 85.266 26.5636
22.935283 85.274 26.3680
23.101481 85.285 26.1745
23.268884 85.300 25.9751
23.437500 85.319 25.7617
23.607338 85.340 25.5269
23.778406 85.363 25.2649
23.950714 85.385 24.9731
24.124271 85.406 24.6521
24.299086 85.424 24.3060
24.475167 85.437 23.9424
24.652524 85.444 23.5710
24.831166 85.446 23.2030
25.011103 85.443 22.8495
25.192344 85.436 22.5203
25.374898 85.425 22.2220
25.558775 85.414 21.9581
25.743984 85.404 21.7274
25.930536 85.397 21.5251
26.118439 85.392 21.3433
26.307704 85.392 21.1720
26.498341 85.396 21.0012
26.690359 85.404 20.8223
26.883768 85.413 20.6288
27.078579 85.424 20.4178
27.274801 85.434 20.1895
27.472446 85.444 19.9467
27.671522 85.451 19.6942
27.872042 85.456 19.4374
28.074014 85.459 19.1815
28.277450 85.461 18.9307
28.482360 85.461 18.6873
28.688755 85.461 18.4523
28.896645 85.461 18.2252
29.106042 85.461 18.0046
29.316957 85.461 17.7887
29.529400 85.462 17.5757
29.743382 85.464 17.3643
29.958915 85.466 17.1532
30.176009 85.468 16.9417
30.394677 85.471 16.7288
30.614929 85.474 16.5140
30.836778 85.478 16.2965
31.060234 85.481 16.0756
31.285309 85.484 15.8512
31.512015 85.487 15.6237
31.740364 85.490 15.3943
31.970368 85.492 15.1652
32.202039 85.493 14.9386
32.435388 85.493 14.7167
32.670428 85.494 14.5007
32.907171 85.495 14.2907
33.145630 85.496 14.0849
33.385817 85.499 13.8803
33.627745 85.504 13.6733
33.871425 85.508 13.4606
34.116871 85.514 13.2402
34.364096 85.518 13.0123
34.613113 85.521 12.7789
34.863934 85.523 12.5440
35.116572 85.523 12.3118
35.371041 85.522 12.0861
35.627354 85.520 11.8690
35.885525 85.518 11.6606
36.145566 85.516 11.4595
36.407492 85.514 11.2632
36.671316 85.512 11.0696
36.937051 85.511 10.8773
37.204712 85.509 10.6868
37.474313 85.506 10.4987
37.745867 85.503 10.3142
38.019389 85.500 10.1340
38.294893 85.497 9.9572
38.572394 85.495 9.7825
38.851905 85.493 9.6080
39.133442 85.490 9.4319
39.417019 85.488 9.2529
39.702651 85.486 9.0707
39.990353 85.484 8.8846
40.280140 85.482 8.6945
40.572026 85.479 8.5003
40.866028 85.475 8.3022
41.162160 85.471 8.1011
41.460438 85.467 7.8986
41.760877 85.461 7.6964
42.063494 85.456 7.4960
42.368303 85.450 7.2975
42.675322 85.445 7.1001
42.984565 85.440 6.9025
43.296048 85.435 6.7042
43.609789 85.431 6.5060
43.925804 85.427 6.3091
44.244108 85.424 6.1143
44.564719 85.422 5.9199
44.887654 85.421 5.7224
45.212928 85.422 5.5165
45.540560 85.423 5.2990
45.870565 85.423 5.0704
46.202962 85.422 4.8356
46.537768 85.419 4.6021
46.875000 85.414 4.3760
47.214676 85.409 4.1593
47.556813 85.405 3.9485
47.901429 85.400 3.7383
48.248542 85.395 3.5250
48.598171 85.388 3.3107
48.950334 85.379 3.1025
49.305048 85.367 2.9102
49.662333 85.355 2.7395
50.022206 85.344 2.5891
50.384688 85.336 2.4504
50.749796 85.330 2.3109
51.117550 85.327 2.1602
51.487969 85.323 1.9935
51.861072 85.319 1.8137
52.236879 85.312 1.6282
52.615409 85.304 1.4455
52.996681 85.295 1.2711
53.380717 85.286 1.1060
53.767536 85.279 0.9465
54.157158 85.273 0.7870
54.549603 85.269 0.6223
54.944892 85.264 0.4498
55.343045 85.260 0.2706
55.744084 85.254 0.0885
56.148028 85.247 -0.0920
56.554900 85.240 -0.2676
56.964720 85.231 -0.4353
57.377510 85.221 -0.5934
57.793291 85.211 -0.7407
58.212085 85.201 -0.8777
58.633914 85.192 -1.0080
59.058799 85.184 -1.1377
59.486764 85.177 -1.2738
59.917829 85.169 -1.4208
60.352019 85.161 -1.5792
60.789354 85.152 -1.7469
61.229859 85.142 -1.9218
61.673556 85.131 -2.1040
62.120468 85.121 -2.2958
62.570618 85.111 -2.4994
63.024031 85.100 -2.7137
63.480729 85.089 -2.9340
63.940736 85.079 -3.1534
64.404077 85.070 -3.3667
64.870776 85.062 -3.5721
65.340856 85.058 -3.7707
65.814343 85.057 -3.9634
66.291261 85.059 -4.1525
66.771635 85.064 -4.3447
67.255489 85.071 -4.5529
67.742850 85.078 -4.7877
68.233743 85.079 -5.0446
68.728193 85.071 -5.2970
69.226226 85.054 -5.5087
69.727867 85.032 -5.6567
70.233144 85.010 -5.7479
70.742083 84.991 -5.8118
71.254709 84.974 -5.8773
71.771050 84.957 -5.9561
72.291132 84.937 -6.0436
72.814984 84.916 -6.1333
73.342631 84.894 -6.2249
73.874102 84.873 -6.3229
74.409424 84.852 -6.4306
74.948626 84.833 -6.5477
75.491734 84.814 -6.6727
76.038779 84.796 -6.8047
76.589787 84.780 -6.9438
77.144788 84.765 -7.0903
77.703811 84.751 -7.2430
78.266885 84.737 -7.3989
78.834039 84.722 -7.5544
79.405303 84.708 -7.7075
79.980706 84.693 -7.8585
80.560280 84.678 -8.0081
81.144053 84.663 -8.1559
81.732056 84.647 -8.3013
82.324320 84.631 -8.4455
82.920876 84.615 -8.5914
83.521755 84.600 -8.7413
84.126988 84.584 -8.8948
84.736607 84.567 -9.0488
85.350643 84.550 -9.1998
85.969129 84.533 -9.3445
86.592097 84.516 -9.4816
87.219579 84.499 -9.6121
87.851608 84.482 -9.7388
88.488217 84.465 -9.8640
89.129439 84.448 -9.9882
89.775308 84.430 -10.1105
90.425856 84.411 -10.2297
91.081119 84.393 -10.3450
91.741131 84.375 -10.4583
92.405925 84.357 -10.5748
93.075536 84.341 -10.6998
93.750000 84.323 -10.8342
94.429351 84.305 -10.9746
95.113625 84.286 -11.1161
95.802858 84.267 -11.2563
96.497085 84.247 -11.3962
97.196342 84.227 -11.5372
97.900667 84.206 -11.6802
98.610096 84.184 -11.8235
99.324665 84.162 -11.9649
100.044413 84.139 -12.1024
100.769376 84.117 -12.2352
