* Measurement data measured by REW V5.31.3
* Source: Headset (2- CX31993 HIFI AUDIO), MICROPHONE (Master Volume), R, volume: 0.400
* Format: 256k Log Swept Sine, 1 sweep at -12.0 dBFS with no timing reference
* Dated: 10 9, 24 10:55:54 AM
* REW Settings:
*  C-weighting compensation: Off
*  Target level: 75.0 dB
* Note: ; 
* Measurement: Moondrop Kadenz R
* Smoothing: 1/12 octave
* Frequency Step: 96 ppo
* Start Frequency: 0.36621094 Hz
*
* Freq(Hz) SPL(dB) Phase(degrees)
0.366211 51.454 21.1246
0.368865 51.478 21.1558
0.371538 51.513 21.2024
0.374230 51.556 21.2606
0.376942 51.605 21.3274
0.379673 51.657 21.4003
0.382424 51.712 21.4779
0.385196 51.767 21.5592
0.387987 51.824 21.6436
0.390798 51.882 21.7308
0.393630 51.940 21.8206
0.396483 51.998 21.9129
0.399356 52.057 22.0075
0.402250 52.117 22.1045
0.405165 52.176 22.2038
0.408101 52.237 22.3052
0.411058 52.297 22.4088
0.414037 52.359 22.5145
0.417037 52.420 22.6222
0.420059 52.482 22.7319
0.423103 52.545 22.8435
0.426169 52.608 22.9570
0.429257 52.671 23.0722
0.432368 52.735 23.1892
0.435501 52.799 23.3078
0.438656 52.864 23.4280
0.441835 52.929 23.5497
0.445037 52.995 23.6728
0.448262 53.061 23.7972
0.451510 53.128 23.9228
0.454782 53.195 24.0496
0.458077 53.263 24.1775
0.461397 53.331 24.3064
0.464740 53.400 24.4361
0.468108 53.469 24.5667
0.471500 53.539 24.6979
0.474917 53.609 24.8297
0.478358 53.679 24.9620
0.481825 53.751 25.0946
0.485316 53.822 25.2276
0.488833 53.895 25.3607
0.492375 53.967 25.4938
0.495943 54.041 25.6269
0.499537 54.114 25.7598
0.503157 54.189 25.8924
0.506803 54.264 26.0246
0.510475 54.339 26.1563
0.514175 54.415 26.2873
0.517900 54.492 26.4175
0.521653 54.569 26.5468
0.525434 54.646 26.6751
0.529241 54.725 26.8022
0.533076 54.803 26.9280
0.536939 54.883 27.0524
0.540830 54.963 27.1753
0.544749 55.043 27.2965
0.548696 55.124 27.4158
0.552673 55.206 27.5333
0.556677 55.288 27.6487
0.560711 55.371 27.7618
0.564774 55.454 27.8727
0.568867 55.538 27.9811
0.572989 55.623 28.0869
0.577141 55.708 28.1900
0.581324 55.794 28.2902
0.585536 55.881 28.3875
0.589779 55.968 28.4816
0.594053 56.056 28.5725
0.598358 56.144 28.6601
0.602694 56.233 28.7442
0.607061 56.323 28.8247
0.611460 56.413 28.9015
0.615891 56.504 28.9744
0.620354 56.596 29.0434
0.624849 56.689 29.1083
0.629377 56.782 29.1690
0.633938 56.875 29.2255
0.638532 56.970 29.2775
0.643159 57.065 29.3251
0.647819 57.160 29.3680
0.652514 57.257 29.4063
0.657242 57.354 29.4397
0.662005 57.452 29.4683
0.666802 57.550 29.4919
0.671634 57.650 29.5104
0.676501 57.750 29.5238
0.681403 57.850 29.5320
0.686341 57.952 29.5349
0.691314 58.054 29.5324
0.696324 58.157 29.5247
0.701370 58.261 29.5115
0.706452 58.365 29.4931
0.711571 58.470 29.4695
0.716728 58.576 29.4412
0.721921 58.682 29.4087
0.727153 58.789 29.3727
0.732422 58.897 29.3344
0.737729 59.005 29.2951
0.743075 59.114 29.2561
0.748460 59.224 29.2181
0.753883 59.334 29.1820
0.759346 59.445 29.1479
0.764849 59.557 29.1159
0.770391 59.671 29.0858
0.775974 59.785 29.0575
0.781597 59.900 29.0308
0.787261 60.015 29.0053
0.792966 60.132 28.9808
0.798712 60.250 28.9570
0.804500 60.369 28.9335
0.810329 60.489 28.9101
0.816201 60.609 28.8865
0.822116 60.731 28.8623
0.828073 60.853 28.8374
0.834074 60.976 28.8114
0.840118 61.100 28.7841
0.846206 61.225 28.7551
0.852338 61.351 28.7243
0.858514 61.478 28.6913
0.864735 61.605 28.6559
0.871001 61.733 28.6179
0.877313 61.863 28.5769
0.883670 61.992 28.5328
0.890074 62.123 28.4853
0.896524 62.254 28.4342
0.903020 62.387 28.3793
0.909564 62.519 28.3202
0.916155 62.653 28.2569
0.922794 62.787 28.1890
0.929481 62.922 28.1165
0.936216 63.057 28.0390
0.943000 63.193 27.9563
0.949834 63.330 27.8683
0.956717 63.467 27.7748
0.963649 63.605 27.6756
0.970632 63.743 27.5705
0.977666 63.882 27.4592
0.984750 64.021 27.3417
0.991886 64.160 27.2178
0.999074 64.300 27.0872
1.006314 64.440 26.9499
1.013606 64.580 26.8056
1.020951 64.721 26.6542
1.028349 64.862 26.4956
1.035801 65.003 26.3296
1.043307 65.144 26.1561
1.050867 65.285 25.9751
1.058482 65.426 25.7865
1.066152 65.568 25.5905
1.073878 65.709 25.3872
1.081660 65.850 25.1773
1.089498 65.992 24.9614
1.097393 66.133 24.7407
1.105345 66.274 24.5165
1.113355 66.415 24.2902
1.121423 66.557 24.0630
1.129549 66.699 23.8356
1.137734 66.840 23.6083
1.145979 66.982 23.3815
1.154283 67.124 23.1550
1.162647 67.267 22.9288
1.171072 67.409 22.7027
1.179558 67.552 22.4764
1.188106 67.695 22.2498
1.196715 67.838 22.0227
1.205387 67.981 21.7946
1.214122 68.125 21.5655
1.222920 68.268 21.3351
1.231782 68.412 21.1031
1.240708 68.556 20.8692
1.249699 68.700 20.6333
1.258754 68.844 20.3952
1.267876 68.989 20.1544
1.277063 69.133 19.9109
1.286318 69.278 19.6644
1.295639 69.423 19.4146
1.305027 69.568 19.1614
1.314484 69.713 18.9044
1.324009 69.858 18.6434
1.333604 70.004 18.3783
1.343268 70.149 18.1087
1.353002 70.295 17.8344
1.362806 70.441 17.5553
1.372681 70.587 17.2710
1.382628 70.733 16.9814
1.392647 70.879 16.6863
1.402739 71.026 16.3855
1.412904 71.172 16.0789
1.423142 71.319 15.7664
1.433455 71.466 15.4483
1.443843 71.613 15.1248
1.454305 71.760 14.7966
1.464844 71.907 14.4645
1.475459 72.054 14.1296
1.486150 72.201 13.7931
1.496920 72.347 13.4557
1.507767 72.494 13.1180
1.518693 72.640 12.7801
1.529698 72.786 12.4422
1.540783 72.932 12.1041
1.551948 73.077 11.7655
1.563194 73.222 11.4262
1.574521 73.368 11.0860
1.585931 73.512 10.7444
1.597423 73.657 10.4011
1.608999 73.801 10.0559
1.620658 73.946 9.7083
1.632402 74.090 9.3581
1.644232 74.234 9.0049
1.656146 74.377 8.6483
1.668147 74.521 8.2880
1.680235 74.664 7.9236
1.692411 74.808 7.5549
1.704675 74.951 7.1814
1.717028 75.094 6.8027
1.729470 75.237 6.4187
1.742003 75.380 6.0288
1.754626 75.523 5.6329
1.767341 75.666 5.2306
1.780147 75.808 4.8216
1.793047 75.951 4.4060
1.806040 76.094 3.9838
1.819128 76.236 3.5551
1.832310 76.379 3.1206
1.845587 76.521 2.6808
1.858961 76.663 2.2365
1.872432 76.804 1.7885
1.886001 76.945 1.3371
1.899667 77.086 0.8829
1.913433 77.226 0.4262
1.927299 77.365 -0.0330
1.941265 77.504 -0.4944
1.955332 77.643 -0.9580
1.969501 77.781 -1.4238
1.983773 77.918 -1.8917
1.998148 78.056 -2.3618
2.012627 78.192 -2.8341
2.027212 78.329 -3.3087
2.041902 78.465 -3.7858
2.056698 78.600 -4.2653
2.071602 78.736 -4.7475
2.086614 78.871 -5.2326
2.101734 79.006 -5.7207
2.116964 79.140 -6.2121
2.132304 79.274 -6.7070
2.147756 79.408 -7.2055
2.163320 79.542 -7.7080
2.178996 79.676 -8.2146
2.194786 79.809 -8.7254
2.210690 79.941 -9.2405
2.226710 80.073 -9.7598
2.242845 80.205 -10.2831
2.259098 80.336 -10.8101
2.275468 80.466 -11.3405
2.291957 80.595 -11.8739
2.308566 80.724 -12.4102
2.325295 80.852 -12.9489
2.342145 80.980 -13.4898
2.359117 81.107 -14.0328
2.376212 81.233 -14.5775
2.393431 81.359 -15.1238
2.410775 81.484 -15.6716
2.428244 81.608 -16.2209
2.445840 81.732 -16.7715
2.463564 81.856 -17.3234
2.481416 81.979 -17.8769
2.499397 82.102 -18.4318
2.517509 82.224 -18.9886
2.535752 82.346 -19.5475
2.554127 82.467 -20.1089
2.572635 82.588 -20.6733
2.591277 82.708 -21.2412
2.610055 82.828 -21.8126
2.628968 82.946 -22.3878
2.648019 83.064 -22.9663
2.667208 83.181 -23.5479
2.686535 83.297 -24.1323
2.706003 83.412 -24.7188
2.725612 83.526 -25.3072
2.745363 83.640 -25.8969
2.765257 83.753 -26.4876
2.785295 83.866 -27.0789
2.805478 83.977 -27.6704
2.825808 84.089 -28.2619
2.846285 84.199 -28.8533
2.866910 84.309 -29.4445
2.887685 84.419 -30.0358
2.908611 84.527 -30.6275
2.929688 84.636 -31.2201
2.950917 84.743 -31.8144
2.972301 84.850 -32.4108
2.993839 84.955 -33.0098
3.015534 85.060 -33.6114
3.037386 85.164 -34.2152
3.059396 85.267 -34.8210
3.081565 85.370 -35.4283
3.103896 85.471 -36.0364
3.126388 85.572 -36.6447
3.149043 85.672 -37.2529
3.171862 85.771 -37.8603
3.194847 85.870 -38.4666
3.217998 85.968 -39.0715
3.241317 86.065 -39.6748
3.264805 86.162 -40.2767
3.288463 86.258 -40.8777
3.312293 86.353 -41.4783
3.336295 86.448 -42.0793
3.360471 86.542 -42.6810
3.384822 86.635 -43.2837
3.409350 86.727 -43.8873
3.434056 86.818 -44.4916
3.458940 86.909 -45.0960
3.484005 86.998 -45.7001
3.509252 87.087 -46.3034
3.534681 87.176 -46.9053
3.560295 87.263 -47.5055
3.586094 87.350 -48.1036
3.612081 87.437 -48.6994
3.638255 87.523 -49.2930
3.664620 87.609 -49.8848
3.691175 87.693 -50.4754
3.717923 87.778 -51.0651
3.744864 87.861 -51.6543
3.772001 87.944 -52.2432
3.799335 88.026 -52.8316
3.826866 88.107 -53.4193
3.854597 88.188 -54.0059
3.882529 88.268 -54.5912
3.910664 88.347 -55.1746
3.939002 88.426 -55.7559
3.967546 88.505 -56.3349
3.996296 88.583 -56.9116
4.025255 88.661 -57.4860
4.054423 88.738 -58.0585
4.083804 88.815 -58.6294
4.113396 88.891 -59.1991
4.143204 88.967 -59.7676
4.173227 89.042 -60.3350
4.203468 89.117 -60.9013
4.233928 89.191 -61.4662
4.264609 89.264 -62.0297
4.295512 89.338 -62.5915
4.326639 89.411 -63.1515
4.357992 89.483 -63.7098
4.389572 89.556 -64.2665
4.421380 89.628 -64.8216
4.453419 89.699 -65.3755
4.485691 89.770 -65.9283
4.518196 89.841 -66.4801
4.550936 89.911 -67.0311
4.583914 89.981 -67.5811
4.617131 90.051 -68.1301
4.650589 90.120 -68.6782
4.684289 90.189 -69.2252
4.718233 90.258 -69.7713
4.752424 90.326 -70.3165
4.786862 90.394 -70.8609
4.821549 90.461 -71.4048
4.856488 90.529 -71.9483
4.891680 90.595 -72.4914
4.927127 90.662 -73.0341
4.962831 90.728 -73.5764
4.998794 90.794 -74.1182
5.035017 90.859 -74.6595
5.071503 90.924 -75.2005
5.108253 90.988 -75.7410
5.145270 91.052 -76.2814
5.182555 91.116 -76.8217
5.220110 91.179 -77.3620
5.257937 91.242 -77.9024
5.296038 91.304 -78.4427
5.334415 91.366 -78.9828
5.373071 91.427 -79.5226
5.412006 91.488 -80.0620
5.451224 91.548 -80.6009
5.490725 91.608 -81.1395
5.530514 91.667 -81.6778
5.570590 91.726 -82.2160
5.610957 91.784 -82.7540
5.651616 91.842 -83.2919
5.692570 91.899 -83.8293
5.733821 91.956 -84.3660
5.775370 92.012 -84.9019
5.817221 92.067 -85.4368
5.859375 92.122 -85.9707
5.901834 92.176 -86.5037
5.944602 92.230 -87.0359
5.987679 92.283 -87.5672
6.031068 92.335 -88.0976
6.074771 92.387 -88.6268
6.118792 92.438 -89.1546
6.163131 92.489 -89.6808
6.207792 92.539 -90.2053
6.252776 92.589 -90.7281
6.298086 92.638 -91.2493
6.343725 92.687 -91.7688
6.389694 92.735 -92.2867
6.435996 92.782 -92.8028
6.482634 92.829 -93.3170
6.529610 92.876 -93.8292
6.576926 92.922 -94.3392
6.624585 92.967 -94.8470
6.672590 93.012 -95.3528
6.720942 93.057 -95.8566
6.769645 93.101 -96.3583
6.818700 93.145 -96.8581
6.868111 93.189 -97.3558
6.917881 93.232 -97.8514
6.968010 93.275 -98.3450
7.018504 93.317 -98.8365
7.069362 93.359 -99.3262
7.120590 93.401 -99.8139
7.172189 93.443 -100.2999
7.224161 93.484 -100.7842
7.276511 93.525 -101.2669
7.329239 93.565 -101.7479
7.382350 93.606 -102.2274
7.435845 93.646 -102.7054
7.489729 93.686 -103.1821
7.544002 93.725 -103.6575
7.598669 93.765 -104.1317
7.653732 93.804 -104.6047
7.709194 93.842 -105.0767
7.765058 93.881 -105.5478
7.821327 93.919 -106.0179
7.878004 93.957 -106.4871
7.935091 93.994 -106.9555
7.992592 94.032 -107.4232
8.050510 94.069 -107.8901
8.108847 94.105 -108.3563
8.167607 94.142 -108.8219
8.226793 94.178 -109.2868
8.286408 94.213 -109.7511
8.346454 94.248 -110.2147
8.406936 94.283 -110.6777
8.467856 94.318 -111.1400
8.529218 94.352 -111.6016
8.591024 94.385 -112.0626
8.653278 94.419 -112.5228
8.715983 94.451 -112.9822
8.779143 94.484 -113.4407
8.842760 94.516 -113.8983
8.906839 94.547 -114.3549
8.971381 94.578 -114.8104
9.036392 94.608 -115.2647
9.101873 94.638 -115.7176
9.167829 94.668 -116.1691
9.234263 94.697 -116.6191
9.301178 94.725 -117.0674
9.368578 94.753 -117.5138
9.436467 94.781 -117.9582
9.504847 94.808 -118.4004
9.573723 94.835 -118.8403
9.643099 94.861 -119.2777
9.712976 94.886 -119.7125
9.783361 94.912 -120.1444
9.854255 94.937 -120.5734
9.925663 94.961 -120.9993
9.997588 94.985 -121.4220
10.070035 95.009 -121.8415
10.143007 95.033 -122.2577
10.216507 95.056 -122.6706
10.290540 95.079 -123.0802
10.365109 95.102 -123.4865
10.440219 95.126 -123.8898
10.515873 95.149 -124.2901
10.592076 95.172 -124.6878
10.668830 95.195 -125.0830
10.746141 95.218 -125.4760
10.824012 95.241 -125.8672
10.902447 95.264 -126.2570
10.981451 95.288 -126.6458
11.061027 95.311 -127.0339
11.141180 95.335 -127.4217
11.221913 95.358 -127.8095
11.303232 95.382 -128.1976
11.385140 95.405 -128.5864
11.467641 95.428 -128.9761
11.550741 95.451 -129.3666
11.634442 95.474 -129.7580
11.718750 95.496 -130.1501
11.803669 95.518 -130.5429
11.889203 95.539 -130.9359
11.975357 95.560 -131.3288
12.062136 95.580 -131.7209
12.149543 95.599 -132.1117
12.237583 95.618 -132.5005
12.326262 95.636 -132.8868
12.415583 95.653 -133.2697
12.505552 95.670 -133.6486
12.596172 95.686 -134.0231
12.687449 95.702 -134.3927
12.779387 95.717 -134.7571
12.871992 95.732 -135.1162
12.965268 95.748 -135.4703
13.059220 95.763 -135.8195
13.153852 95.779 -136.1647
13.249170 95.796 -136.5066
13.345179 95.812 -136.8461
13.441884 95.830 -137.1845
13.539289 95.848 -137.5231
13.637401 95.867 -137.8632
13.736223 95.886 -138.2061
13.835761 95.905 -138.5528
13.936021 95.924 -138.9045
14.037007 95.944 -139.2617
14.138725 95.963 -139.6248
14.241180 95.981 -139.9936
14.344377 95.998 -140.3675
14.448323 96.014 -140.7455
14.553021 96.028 -141.1263
14.658478 96.041 -141.5078
14.764700 96.051 -141.8879
14.871691 96.060 -142.2642
14.979457 96.067 -142.6343
15.088005 96.072 -142.9955
15.197339 96.076 -143.3458
15.307465 96.079 -143.6832
15.418389 96.082 -144.0064
15.530117 96.084 -144.3146
15.642655 96.086 -144.6081
15.756008 96.090 -144.8876
15.870182 96.095 -145.1550
15.985184 96.102 -145.4126
16.101019 96.111 -145.6637
16.217694 96.122 -145.9121
16.335214 96.136 -146.1615
16.453586 96.153 -146.4159
16.572815 96.171 -146.6791
16.692909 96.190 -146.9541
16.813872 96.211 -147.2434
16.935713 96.232 -147.5484
17.058436 96.253 -147.8696
17.182048 96.273 -148.2064
17.306556 96.292 -148.5571
17.431967 96.308 -148.9192
17.558286 96.322 -149.2895
17.685521 96.333 -149.6644
17.813677 96.342 -150.0398
17.942762 96.348 -150.4120
18.072783 96.352 -150.7775
18.203746 96.353 -151.1332
18.335658 96.353 -151.4770
18.468526 96.352 -151.8077
18.602356 96.351 -152.1247
18.737156 96.349 -152.4287
18.872934 96.348 -152.7208
19.009695 96.348 -153.0030
19.147447 96.349 -153.2774
19.286197 96.350 -153.5465
19.425953 96.353 -153.8124
19.566721 96.357 -154.0770
19.708510 96.361 -154.3418
19.851326 96.366 -154.6076
19.995177 96.371 -154.8748
20.140070 96.375 -155.1430
20.286013 96.380 -155.4117
20.433014 96.385 -155.6801
20.581080 96.390 -155.9474
20.730219 96.394 -156.2127
20.880439 96.398 -156.4756
21.031747 96.403 -156.7360
21.184152 96.408 -156.9942
21.337661 96.413 -157.2509
21.492282 96.418 -157.5072
21.648024 96.425 -157.7643
21.804895 96.431 -158.0233
21.962902 96.438 -158.2857
22.122054 96.445 -158.5521
22.282360 96.452 -158.8234
22.443827 96.459 -159.0994
22.606464 96.465 -159.3800
22.770280 96.470 -159.6642
22.935283 96.474 -159.9507
23.101481 96.477 -160.2381
23.268884 96.479 -160.5245
23.437500 96.480 -160.8083
23.607338 96.480 -161.0880
23.778406 96.479 -161.3624
23.950714 96.478 -161.6308
24.124271 96.476 -161.8933
24.299086 96.474 -162.1501
24.475167 96.473 -162.4024
24.652524 96.472 -162.6513
24.831166 96.471 -162.8985
25.011103 96.471 -163.1451
25.192344 96.471 -163.3925
25.374898 96.471 -163.6413
25.558775 96.471 -163.8917
25.743984 96.471 -164.1435
25.930536 96.471 -164.3960
26.118439 96.469 -164.6481
26.307704 96.468 -164.8991
26.498341 96.466 -165.1481
26.690359 96.463 -165.3944
26.883768 96.461 -165.6379
27.078579 96.458 -165.8785
27.274801 96.456 -166.1165
27.472446 96.453 -166.3522
27.671522 96.451 -166.5858
27.872042 96.448 -166.8174
28.074014 96.446 -167.0471
28.277450 96.443 -167.2750
28.482360 96.441 -167.5012
28.688755 96.439 -167.7262
28.896645 96.438 -167.9507
29.106042 96.436 -168.1755
29.316957 96.435 -168.4011
29.529400 96.434 -168.6282
29.743382 96.432 -168.8566
29.958915 96.430 -169.0855
30.176009 96.427 -169.3138
30.394677 96.424 -169.5399
30.614929 96.421 -169.7625
30.836778 96.417 -169.9810
31.060234 96.414 -170.1956
31.285309 96.411 -170.4077
31.512015 96.409 -170.6198
31.740364 96.408 -170.8347
31.970368 96.407 -171.0551
32.202039 96.406 -171.2827
32.435388 96.404 -171.5176
32.670428 96.402 -171.7586
32.907171 96.397 -172.0026
33.145630 96.391 -172.2457
33.385817 96.384 -172.4839
33.627745 96.375 -172.7142
33.871425 96.366 -172.9348
34.116871 96.357 -173.1456
34.364096 96.349 -173.3484
34.613113 96.342 -173.5463
34.863934 96.336 -173.7428
35.116572 96.331 -173.9412
35.371041 96.328 -174.1444
35.627354 96.324 -174.3538
35.885525 96.321 -174.5699
36.145566 96.317 -174.7921
36.407492 96.313 -175.0189
36.671316 96.308 -175.2487
36.937051 96.302 -175.4795
37.204712 96.296 -175.7095
37.474313 96.288 -175.9370
37.745867 96.280 -176.1606
38.019389 96.271 -176.3793
38.294893 96.262 -176.5926
38.572394 96.253 -176.8003
38.851905 96.244 -177.0031
39.133442 96.236 -177.2019
39.417019 96.227 -177.3978
39.702651 96.219 -177.5920
39.990353 96.211 -177.7852
40.280140 96.203 -177.9780
40.572026 96.194 -178.1703
40.866028 96.186 -178.3621
41.162160 96.177 -178.5530
41.460438 96.168 -178.7430
41.760877 96.159 -178.9320
42.063494 96.149 -179.1202
42.368303 96.139 -179.3077
42.675322 96.129 -179.4949
42.984565 96.119 -179.6816
43.296048 96.108 -179.8677
43.609789 96.098 179.9470
43.925804 96.087 179.7626
44.244108 96.076 179.5792
44.564719 96.065 179.3966
44.887654 96.054 179.2139
45.212928 96.044 179.0299
45.540560 96.034 178.8433
45.870565 96.024 178.6527
46.202962 96.014 178.4578
46.537768 96.003 178.2593
46.875000 95.992 178.0591
47.214676 95.979 177.8598
47.556813 95.966 177.6636
47.901429 95.953 177.4719
48.248542 95.939 177.2849
48.598171 95.926 177.1014
48.950334 95.913 176.9200
49.305048 95.900 176.7395
49.662333 95.887 176.5591
50.022206 95.874 176.3792
50.384688 95.860 176.2000
50.749796 95.846 176.0223
51.117550 95.833 175.8464
51.487969 95.818 175.6725
51.861072 95.804 175.5002
52.236879 95.790 175.3288
52.615409 95.776 175.1577
52.996681 95.762 174.9864
53.380717 95.748 174.8148
53.767536 95.734 174.6434
54.157158 95.720 174.4728
54.549603 95.706 174.3031
54.944892 95.692 174.1343
55.343045 95.677 173.9668
55.744084 95.663 173.8013
56.148028 95.648 173.6392
56.554900 95.634 173.4810
56.964720 95.620 173.3261
57.377510 95.606 173.1724
57.793291 95.592 173.0173
58.212085 95.578 172.8597
58.633914 95.562 172.7003
59.058799 95.546 172.5415
59.486764 95.528 172.3860
59.917829 95.509 172.2358
60.352019 95.490 172.0912
60.789354 95.471 171.9504
61.229859 95.451 171.8105
61.673556 95.432 171.6687
62.120468 95.413 171.5234
62.570618 95.393 171.3747
63.024031 95.373 171.2232
63.480729 95.353 171.0695
63.940736 95.334 170.9129
64.404077 95.315 170.7535
64.870776 95.296 170.5922
65.340856 95.278 170.4312
65.814343 95.260 170.2718
66.291261 95.243 170.1136
66.771635 95.228 169.9543
67.255489 95.214 169.7905
67.742850 95.200 169.6200
68.233743 95.184 169.4449
68.728193 95.167 169.2713
69.226226 95.148 169.1072
69.727867 95.127 168.9573
70.233144 95.106 168.8200
70.742083 95.085 168.6896
71.254709 95.063 168.5632
71.771050 95.039 168.4440
72.291132 95.014 168.3376
72.814984 94.989 168.2443
73.342631 94.966 168.1572
73.874102 94.944 168.0672
74.409424 94.923 167.9696
74.948626 94.901 167.8657
75.491734 94.880 167.7579
76.038779 94.859 167.6462
76.589787 94.838 167.5284
77.144788 94.816 167.4033
77.703811 94.793 167.2746
78.266885 94.768 167.1500
78.834039 94.742 167.0364
79.405303 94.716 166.9354
79.980706 94.689 166.8425
80.560280 94.663 166.7520
81.144053 94.637 166.6621
81.732056 94.611 166.5737
82.324320 94.586 166.4856
82.920876 94.560 166.3928
83.521755 94.535 166.2913
84.126988 94.508 166.1835
84.736607 94.481 166.0777
85.350643 94.453 165.9813
85.969129 94.426 165.8940
86.592097 94.401 165.8091
87.219579 94.377 165.7187
87.851608 94.353 165.6207
88.488217 94.328 165.5209
89.129439 94.301 165.4275
89.775308 94.275 165.3432
90.425856 94.249 165.2622
91.081119 94.224 165.1752
91.741131 94.198 165.0789
92.405925 94.170 164.9788
93.075536 94.141 164.8836
93.750000 94.111 164.7968
