* Measurement data measured by REW V5.31.3
* Source: Headset (2- CX31993 HIFI AUDIO), MICROPHONE (Master Volume), R, volume: 0.250
* Format: 256k Log Swept Sine, 1 sweep at -12.0 dBFS with no timing reference
* Dated: 11 24, 24 1:20:39 PM
* REW Settings:
*  C-weighting compensation: Off
*  Target level: 75.0 dB
* Note: ; 
* Measurement: Moondrop DUSK 1124 L
* Smoothing: 1/12 octave
* Frequency Step: 96 ppo
* Start Frequency: 0.36621094 Hz
*
* Freq(Hz) SPL(dB) Phase(degrees)
0.366211 40.827 -97.3627
0.368865 40.859 -97.5269
0.371538 40.905 -97.7697
0.374230 40.963 -98.0692
0.376942 41.027 -98.4066
0.379673 41.096 -98.7682
0.382424 41.168 -99.1448
0.385196 41.242 -99.5309
0.387987 41.317 -99.9232
0.390798 41.393 -100.3199
0.393630 41.470 -100.7198
0.396483 41.547 -101.1224
0.399356 41.625 -101.5273
0.402250 41.704 -101.9344
0.405165 41.783 -102.3433
0.408101 41.863 -102.7540
0.411058 41.943 -103.1664
0.414037 42.024 -103.5803
0.417037 42.105 -103.9957
0.420059 42.187 -104.4123
0.423103 42.270 -104.8302
0.426169 42.353 -105.2492
0.429257 42.437 -105.6693
0.432368 42.521 -106.0902
0.435501 42.606 -106.5120
0.438656 42.692 -106.9345
0.441835 42.778 -107.3577
0.445037 42.865 -107.7814
0.448262 42.953 -108.2056
0.451510 43.041 -108.6301
0.454782 43.130 -109.0550
0.458077 43.219 -109.4802
0.461397 43.309 -109.9055
0.464740 43.400 -110.3309
0.468108 43.491 -110.7563
0.471500 43.583 -111.1818
0.474917 43.676 -111.6071
0.478358 43.770 -112.0324
0.481825 43.864 -112.4574
0.485316 43.959 -112.8823
0.488833 44.054 -113.3069
0.492375 44.150 -113.7312
0.495943 44.247 -114.1551
0.499537 44.345 -114.5788
0.503157 44.443 -115.0020
0.506803 44.542 -115.4249
0.510475 44.642 -115.8473
0.514175 44.742 -116.2694
0.517900 44.843 -116.6910
0.521653 44.945 -117.1122
0.525434 45.048 -117.5330
0.529241 45.151 -117.9533
0.533076 45.255 -118.3733
0.536939 45.360 -118.7928
0.540830 45.466 -119.2120
0.544749 45.572 -119.6308
0.548696 45.679 -120.0492
0.552673 45.787 -120.4673
0.556677 45.896 -120.8852
0.560711 46.006 -121.3027
0.564774 46.116 -121.7201
0.568867 46.227 -122.1373
0.572989 46.339 -122.5543
0.577141 46.452 -122.9712
0.581324 46.565 -123.3881
0.585536 46.680 -123.8050
0.589779 46.795 -124.2219
0.594053 46.911 -124.6389
0.598358 47.028 -125.0560
0.602694 47.146 -125.4733
0.607061 47.264 -125.8909
0.611460 47.384 -126.3089
0.615891 47.504 -126.7272
0.620354 47.625 -127.1459
0.624849 47.747 -127.5652
0.629377 47.870 -127.9850
0.633938 47.994 -128.4055
0.638532 48.119 -128.8267
0.643159 48.245 -129.2487
0.647819 48.371 -129.6715
0.652514 48.499 -130.0953
0.657242 48.627 -130.5200
0.662005 48.756 -130.9458
0.666802 48.887 -131.3728
0.671634 49.018 -131.8009
0.676501 49.150 -132.2303
0.681403 49.283 -132.6611
0.686341 49.417 -133.0933
0.691314 49.552 -133.5269
0.696324 49.688 -133.9621
0.701370 49.825 -134.3988
0.706452 49.962 -134.8369
0.711571 50.100 -135.2764
0.716728 50.238 -135.7169
0.721921 50.375 -136.1579
0.727153 50.512 -136.5988
0.732422 50.646 -137.0385
0.737729 50.779 -137.4757
0.743075 50.911 -137.9093
0.748460 51.041 -138.3384
0.753883 51.171 -138.7622
0.759346 51.301 -139.1805
0.764849 51.430 -139.5930
0.770391 51.560 -139.9997
0.775974 51.690 -140.4007
0.781597 51.820 -140.7962
0.787261 51.951 -141.1864
0.792966 52.082 -141.5713
0.798712 52.213 -141.9513
0.804500 52.344 -142.3265
0.810329 52.476 -142.6972
0.816201 52.609 -143.0635
0.822116 52.741 -143.4258
0.828073 52.874 -143.7843
0.834074 53.008 -144.1391
0.840118 53.141 -144.4905
0.846206 53.275 -144.8388
0.852338 53.410 -145.1842
0.858514 53.544 -145.5269
0.864735 53.679 -145.8671
0.871001 53.815 -146.2052
0.877313 53.950 -146.5412
0.883670 54.086 -146.8756
0.890074 54.222 -147.2085
0.896524 54.359 -147.5401
0.903020 54.496 -147.8707
0.909564 54.633 -148.2004
0.916155 54.771 -148.5296
0.922794 54.908 -148.8585
0.929481 55.046 -149.1873
0.936216 55.185 -149.5162
0.943000 55.323 -149.8454
0.949834 55.462 -150.1752
0.956717 55.601 -150.5058
0.963649 55.741 -150.8374
0.970632 55.880 -151.1702
0.977666 56.020 -151.5045
0.984750 56.161 -151.8404
0.991886 56.301 -152.1782
0.999074 56.442 -152.5181
1.006314 56.583 -152.8602
1.013606 56.724 -153.2049
1.020951 56.866 -153.5523
1.028349 57.008 -153.9026
1.035801 57.150 -154.2559
1.043307 57.292 -154.6126
1.050867 57.434 -154.9726
1.058482 57.577 -155.3362
1.066152 57.720 -155.7033
1.073878 57.863 -156.0739
1.081660 58.007 -156.4476
1.089498 58.150 -156.8241
1.097393 58.293 -157.2025
1.105345 58.437 -157.5820
1.113355 58.580 -157.9615
1.121423 58.724 -158.3401
1.129549 58.867 -158.7174
1.137734 59.010 -159.0930
1.145979 59.153 -159.4667
1.154283 59.295 -159.8385
1.162647 59.438 -160.2083
1.171072 59.580 -160.5764
1.179558 59.722 -160.9428
1.188106 59.864 -161.3076
1.196715 60.005 -161.6710
1.205387 60.147 -162.0332
1.214122 60.288 -162.3943
1.222920 60.430 -162.7545
1.231782 60.571 -163.1140
1.240708 60.712 -163.4729
1.249699 60.853 -163.8314
1.258754 60.993 -164.1897
1.267876 61.134 -164.5479
1.277063 61.275 -164.9063
1.286318 61.415 -165.2651
1.295639 61.556 -165.6243
1.305027 61.696 -165.9843
1.314484 61.837 -166.3452
1.324009 61.977 -166.7071
1.333604 62.118 -167.0703
1.343268 62.259 -167.4351
1.353002 62.399 -167.8014
1.362806 62.540 -168.1697
1.372681 62.681 -168.5400
1.382628 62.823 -168.9126
1.392647 62.964 -169.2876
1.402739 63.105 -169.6651
1.412904 63.247 -170.0454
1.423142 63.389 -170.4284
1.433455 63.532 -170.8141
1.443843 63.674 -171.2023
1.454305 63.817 -171.5925
1.464844 63.960 -171.9843
1.475459 64.103 -172.3767
1.486150 64.245 -172.7691
1.496920 64.388 -173.1609
1.507767 64.530 -173.5518
1.518693 64.672 -173.9415
1.529698 64.813 -174.3302
1.540783 64.954 -174.7179
1.551948 65.095 -175.1049
1.563194 65.236 -175.4913
1.574521 65.376 -175.8776
1.585931 65.516 -176.2638
1.597423 65.656 -176.6504
1.608999 65.795 -177.0376
1.620658 65.934 -177.4258
1.632402 66.073 -177.8152
1.644232 66.212 -178.2061
1.656146 66.350 -178.5988
1.668147 66.489 -178.9938
1.680235 66.627 -179.3912
1.692411 66.765 -179.7915
1.704675 66.902 179.8052
1.717028 67.040 179.3984
1.729470 67.178 178.9878
1.742003 67.315 178.5731
1.754626 67.453 178.1541
1.767341 67.590 177.7303
1.780147 67.728 177.3018
1.793047 67.865 176.8682
1.806040 68.003 176.4295
1.819128 68.140 175.9859
1.832310 68.277 175.5377
1.845587 68.414 175.0854
1.858961 68.551 174.6296
1.872432 68.687 174.1707
1.886001 68.823 173.7092
1.899667 68.958 173.2455
1.913433 69.093 172.7798
1.927299 69.228 172.3123
1.941265 69.361 171.8432
1.955332 69.495 171.3726
1.969501 69.628 170.9004
1.983773 69.760 170.4269
1.998148 69.892 169.9519
2.012627 70.024 169.4756
2.027212 70.155 168.9978
2.041902 70.286 168.5185
2.056698 70.417 168.0377
2.071602 70.547 167.5551
2.086614 70.677 167.0709
2.101734 70.807 166.5847
2.116964 70.936 166.0964
2.132304 71.065 165.6059
2.147756 71.194 165.1129
2.163320 71.323 164.6172
2.178996 71.452 164.1186
2.194786 71.580 163.6169
2.210690 71.707 163.1119
2.226710 71.835 162.6036
2.242845 71.961 162.0921
2.259098 72.087 161.5776
2.275468 72.212 161.0602
2.291957 72.337 160.5404
2.308566 72.461 160.0184
2.325295 72.584 159.4944
2.342145 72.707 158.9688
2.359117 72.829 158.4418
2.376212 72.951 157.9136
2.393431 73.072 157.3845
2.410775 73.192 156.8544
2.428244 73.312 156.3238
2.445840 73.432 155.7925
2.463564 73.551 155.2606
2.481416 73.670 154.7282
2.499397 73.788 154.1952
2.517509 73.906 153.6613
2.535752 74.023 153.1263
2.554127 74.140 152.5898
2.572635 74.256 152.0513
2.591277 74.372 151.5103
2.610055 74.487 150.9665
2.628968 74.601 150.4199
2.648019 74.715 149.8706
2.667208 74.827 149.3189
2.686535 74.939 148.7653
2.706003 75.050 148.2099
2.725612 75.161 147.6534
2.745363 75.270 147.0962
2.765257 75.379 146.5386
2.785295 75.488 145.9811
2.805478 75.596 145.4239
2.825808 75.703 144.8674
2.846285 75.810 144.3118
2.866910 75.916 143.7570
2.887685 76.022 143.2031
2.908611 76.127 142.6497
2.929688 76.232 142.0962
2.950917 76.336 141.5421
2.972301 76.440 140.9869
2.993839 76.542 140.4301
3.015534 76.644 139.8718
3.037386 76.745 139.3121
3.059396 76.845 138.7512
3.081565 76.944 138.1898
3.103896 77.043 137.6281
3.126388 77.141 137.0668
3.149043 77.238 136.5064
3.171862 77.335 135.9473
3.194847 77.431 135.3900
3.217998 77.527 134.8347
3.241317 77.622 134.2816
3.264805 77.717 133.7306
3.288463 77.812 133.1816
3.312293 77.905 132.6339
3.336295 77.999 132.0872
3.360471 78.091 131.5409
3.384822 78.183 130.9948
3.409350 78.274 130.4489
3.434056 78.365 129.9033
3.458940 78.454 129.3584
3.484005 78.544 128.8143
3.509252 78.632 128.2716
3.534681 78.721 127.7305
3.560295 78.809 127.1913
3.586094 78.896 126.6544
3.612081 78.984 126.1199
3.638255 79.071 125.5878
3.664620 79.158 125.0579
3.691175 79.244 124.5299
3.717923 79.330 124.0035
3.744864 79.416 123.4785
3.772001 79.501 122.9546
3.799335 79.585 122.4318
3.826866 79.669 121.9100
3.854597 79.753 121.3893
3.882529 79.837 120.8699
3.910664 79.920 120.3517
3.939002 80.004 119.8350
3.967546 80.087 119.3196
3.996296 80.170 118.8058
4.025255 80.253 118.2935
4.054423 80.336 117.7826
4.083804 80.418 117.2729
4.113396 80.501 116.7643
4.143204 80.583 116.2565
4.173227 80.665 115.7493
4.203468 80.747 115.2426
4.233928 80.828 114.7361
4.264609 80.910 114.2296
4.295512 80.992 113.7229
4.326639 81.073 113.2159
4.357992 81.154 112.7084
4.389572 81.236 112.2004
4.421380 81.317 111.6918
4.453419 81.398 111.1826
4.485691 81.479 110.6726
4.518196 81.560 110.1618
4.550936 81.641 109.6500
4.583914 81.721 109.1370
4.617131 81.802 108.6227
4.650589 81.882 108.1067
4.684289 81.962 107.5889
4.718233 82.042 107.0690
4.752424 82.121 106.5468
4.786862 82.200 106.0222
4.821549 82.279 105.4952
4.856488 82.358 104.9656
4.891680 82.436 104.4335
4.927127 82.514 103.8992
4.962831 82.591 103.3625
4.998794 82.668 102.8236
5.035017 82.745 102.2823
5.071503 82.821 101.7388
5.108253 82.896 101.1926
5.145270 82.970 100.6436
5.182555 83.044 100.0916
5.220110 83.118 99.5367
5.257937 83.190 98.9790
5.296038 83.262 98.4189
5.334415 83.333 97.8569
5.373071 83.404 97.2932
5.412006 83.473 96.7283
5.451224 83.541 96.1623
5.490725 83.609 95.5951
5.530514 83.676 95.0264
5.570590 83.741 94.4562
5.610957 83.806 93.8847
5.651616 83.869 93.3122
5.692570 83.932 92.7393
5.733821 83.993 92.1667
5.775370 84.054 91.5949
5.817221 84.113 91.0245
5.859375 84.171 90.4555
5.901834 84.229 89.8878
5.944602 84.285 89.3214
5.987679 84.340 88.7564
6.031068 84.394 88.1931
6.074771 84.447 87.6320
6.118792 84.499 87.0739
6.163131 84.550 86.5192
6.207792 84.601 85.9683
6.252776 84.650 85.4213
6.298086 84.699 84.8781
6.343725 84.747 84.3387
6.389694 84.794 83.8031
6.435996 84.840 83.2716
6.482634 84.885 82.7443
6.529610 84.931 82.2215
6.576926 84.975 81.7034
6.624585 85.019 81.1901
6.672590 85.063 80.6815
6.720942 85.106 80.1773
6.769645 85.149 79.6774
6.818700 85.192 79.1814
6.868111 85.234 78.6893
6.917881 85.277 78.2007
6.968010 85.319 77.7157
7.018504 85.361 77.2339
7.069362 85.403 76.7553
7.120590 85.445 76.2795
7.172189 85.487 75.8058
7.224161 85.529 75.3341
7.276511 85.571 74.8636
7.329239 85.613 74.3943
7.382350 85.655 73.9258
7.435845 85.697 73.4578
7.489729 85.738 72.9902
7.544002 85.780 72.5226
7.598669 85.822 72.0546
7.653732 85.863 71.5860
7.709194 85.904 71.1165
7.765058 85.945 70.6460
7.821327 85.985 70.1744
7.878004 86.025 69.7018
7.935091 86.064 69.2283
7.992592 86.103 68.7538
8.050510 86.142 68.2786
8.108847 86.180 67.8024
8.167607 86.217 67.3257
8.226793 86.253 66.8485
8.286408 86.289 66.3712
8.346454 86.324 65.8944
8.406936 86.358 65.4183
8.467856 86.392 64.9431
8.529218 86.425 64.4692
8.591024 86.457 63.9968
8.653278 86.488 63.5262
8.715983 86.518 63.0580
8.779143 86.548 62.5925
8.842760 86.577 62.1299
8.906839 86.606 61.6703
8.971381 86.634 61.2139
9.036392 86.661 60.7607
9.101873 86.688 60.3109
9.167829 86.715 59.8645
9.234263 86.742 59.4214
9.301178 86.768 58.9815
9.368578 86.794 58.5445
9.436467 86.820 58.1102
9.504847 86.846 57.6783
9.573723 86.872 57.2484
9.643099 86.898 56.8203
9.712976 86.924 56.3937
9.783361 86.949 55.9681
9.854255 86.975 55.5430
9.925663 87.001 55.1183
9.997588 87.027 54.6934
10.070035 87.052 54.2684
10.143007 87.078 53.8428
10.216507 87.103 53.4166
10.290540 87.128 52.9896
10.365109 87.153 52.5617
10.440219 87.177 52.1331
10.515873 87.201 51.7038
10.592076 87.225 51.2740
10.668830 87.248 50.8437
10.746141 87.271 50.4133
10.824012 87.293 49.9829
10.902447 87.314 49.5528
10.981451 87.336 49.1233
11.061027 87.357 48.6945
11.141180 87.377 48.2666
11.221913 87.397 47.8397
11.303232 87.417 47.4140
11.385140 87.436 46.9893
11.467641 87.455 46.5658
11.550741 87.474 46.1432
11.634442 87.492 45.7214
11.718750 87.511 45.3003
11.803669 87.529 44.8795
11.889203 87.547 44.4590
11.975357 87.565 44.0384
12.062136 87.582 43.6175
12.149543 87.599 43.1964
12.237583 87.616 42.7747
12.326262 87.632 42.3528
12.415583 87.648 41.9307
12.505552 87.664 41.5085
12.596172 87.678 41.0868
12.687449 87.693 40.6659
12.779387 87.706 40.2463
12.871992 87.719 39.8287
12.965268 87.731 39.4137
13.059220 87.742 39.0018
13.153852 87.753 38.5937
13.249170 87.764 38.1898
13.345179 87.774 37.7906
13.441884 87.784 37.3962
13.539289 87.794 37.0067
13.637401 87.804 36.6219
13.736223 87.814 36.2416
13.835761 87.825 35.8651
13.936021 87.836 35.4916
14.037007 87.847 35.1205
14.138725 87.859 34.7506
14.241180 87.871 34.3810
14.344377 87.884 34.0107
14.448323 87.897 33.6390
14.553021 87.911 33.2650
14.658478 87.924 32.8884
14.764700 87.937 32.5088
14.871691 87.950 32.1263
14.979457 87.963 31.7412
15.088005 87.974 31.3541
15.197339 87.986 30.9659
15.307465 87.996 30.5775
15.418389 88.005 30.1901
15.530117 88.013 29.8048
15.642655 88.021 29.4225
15.756008 88.028 29.0443
15.870182 88.034 28.6708
15.985184 88.040 28.3023
16.101019 88.046 27.9390
16.217694 88.052 27.5805
16.335214 88.058 27.2263
16.453586 88.064 26.8755
16.572815 88.070 26.5272
16.692909 88.077 26.1804
16.813872 88.083 25.8339
16.935713 88.090 25.4868
17.058436 88.097 25.1385
17.182048 88.103 24.7889
17.306556 88.109 24.4379
17.431967 88.115 24.0861
17.558286 88.119 23.7341
17.685521 88.123 23.3831
17.813677 88.125 23.0344
17.942762 88.127 22.6891
18.072783 88.128 22.3486
18.203746 88.128 22.0137
18.335658 88.128 21.6849
18.468526 88.128 21.3625
18.602356 88.127 21.0460
18.737156 88.127 20.7347
18.872934 88.128 20.4275
19.009695 88.128 20.1228
19.147447 88.130 19.8192
19.286197 88.131 19.5150
19.425953 88.133 19.2092
19.566721 88.135 18.9007
19.708510 88.137 18.5892
19.851326 88.138 18.2747
19.995177 88.139 17.9578
20.140070 88.139 17.6396
20.286013 88.138 17.3212
20.433014 88.136 17.0042
20.581080 88.134 16.6896
20.730219 88.130 16.3787
20.880439 88.126 16.0718
21.031747 88.122 15.7693
21.184152 88.118 15.4707
21.337661 88.115 15.1750
21.492282 88.111 14.8811
21.648024 88.108 14.5875
21.804895 88.105 14.2928
21.962902 88.102 13.9955
22.122054 88.100 13.6949
22.282360 88.097 13.3905
22.443827 88.093 13.0823
22.606464 88.089 12.7711
22.770280 88.083 12.4579
22.935283 88.077 12.1442
23.101481 88.070 11.8318
23.268884 88.061 11.5225
23.437500 88.052 11.2178
23.607338 88.041 10.9191
23.778406 88.031 10.6274
23.950714 88.019 10.3431
24.124271 88.008 10.0663
24.299086 87.998 9.7964
24.475167 87.987 9.5322
24.652524 87.978 9.2726
24.831166 87.969 9.0159
25.011103 87.961 8.7603
25.192344 87.954 8.5040
25.374898 87.947 8.2457
25.558775 87.941 7.9844
25.743984 87.934 7.7195
25.930536 87.927 7.4510
26.118439 87.920 7.1798
26.307704 87.912 6.9070
26.498341 87.904 6.6343
26.690359 87.894 6.3635
26.883768 87.883 6.0964
27.078579 87.872 5.8344
27.274801 87.861 5.5782
27.472446 87.849 5.3279
27.671522 87.837 5.0829
27.872042 87.826 4.8418
28.074014 87.816 4.6029
28.277450 87.806 4.3644
28.482360 87.796 4.1245
28.688755 87.786 3.8821
28.896645 87.776 3.6367
29.106042 87.766 3.3884
29.316957 87.755 3.1378
29.529400 87.744 2.8859
29.743382 87.731 2.6340
29.958915 87.718 2.3832
30.176009 87.705 2.1339
30.394677 87.691 1.8866
30.614929 87.676 1.6411
30.836778 87.661 1.3973
31.060234 87.646 1.1547
31.285309 87.631 0.9133
31.512015 87.615 0.6733
31.740364 87.599 0.4354
31.970368 87.582 0.2002
32.202039 87.566 -0.0315
32.435388 87.549 -0.2592
32.670428 87.532 -0.4829
32.907171 87.516 -0.7034
33.145630 87.500 -0.9218
33.385817 87.485 -1.1396
33.627745 87.470 -1.3584
33.871425 87.455 -1.5790
34.116871 87.441 -1.8016
34.364096 87.426 -2.0251
34.613113 87.410 -2.2481
34.863934 87.394 -2.4684
35.116572 87.378 -2.6841
35.371041 87.361 -2.8942
35.627354 87.344 -3.0988
35.885525 87.329 -3.2994
36.145566 87.313 -3.4979
36.407492 87.299 -3.6969
36.671316 87.284 -3.8979
36.937051 87.269 -4.1019
37.204712 87.254 -4.3080
37.474313 87.238 -4.5150
37.745867 87.222 -4.7208
38.019389 87.205 -4.9244
38.294893 87.187 -5.1250
38.572394 87.169 -5.3231
38.851905 87.151 -5.5197
39.133442 87.133 -5.7159
39.417019 87.115 -5.9122
39.702651 87.096 -6.1086
39.990353 87.077 -6.3043
40.280140 87.058 -6.4987
40.572026 87.038 -6.6913
40.866028 87.019 -6.8821
41.162160 86.999 -7.0717
41.460438 86.980 -7.2604
41.760877 86.961 -7.4485
42.063494 86.942 -7.6354
42.368303 86.923 -7.8206
42.675322 86.904 -8.0029
42.984565 86.886 -8.1824
43.296048 86.868 -8.3591
43.609789 86.850 -8.5338
43.925804 86.833 -8.7074
44.244108 86.816 -8.8802
44.564719 86.800 -9.0518
44.887654 86.783 -9.2208
45.212928 86.766 -9.3862
45.540560 86.749 -9.5475
45.870565 86.733 -9.7057
46.202962 86.717 -9.8641
46.537768 86.702 -10.0273
46.875000 86.687 -10.2004
47.214676 86.671 -10.3864
47.556813 86.652 -10.5844
47.901429 86.630 -10.7889
48.248542 86.604 -10.9911
48.598171 86.574 -11.1812
48.950334 86.541 -11.3518
49.305048 86.508 -11.5008
49.662333 86.475 -11.6321
50.022206 86.445 -11.7539
50.384688 86.416 -11.8757
50.749796 86.388 -12.0046
51.117550 86.362 -12.1439
51.487969 86.335 -12.2922
51.861072 86.307 -12.4459
52.236879 86.280 -12.6012
52.615409 86.252 -12.7552
52.996681 86.224 -12.9072
53.380717 86.197 -13.0571
53.767536 86.170 -13.2043
54.157158 86.143 -13.3473
54.549603 86.117 -13.4833
54.944892 86.091 -13.6106
55.343045 86.066 -13.7291
55.744084 86.043 -13.8411
56.148028 86.022 -13.9504
56.554900 86.001 -14.0607
56.964720 85.981 -14.1733
57.377510 85.961 -14.2881
57.793291 85.940 -14.4037
58.212085 85.919 -14.5197
58.633914 85.898 -14.6366
59.058799 85.875 -14.7556
59.486764 85.852 -14.8773
59.917829 85.827 -15.0005
60.352019 85.801 -15.1232
60.789354 85.773 -15.2432
61.229859 85.745 -15.3591
61.673556 85.715 -15.4708
62.120468 85.686 -15.5791
62.570618 85.656 -15.6850
63.024031 85.627 -15.7897
63.480729 85.597 -15.8940
63.940736 85.567 -15.9979
64.404077 85.538 -16.1006
64.870776 85.508 -16.2010
65.340856 85.478 -16.2983
65.814343 85.449 -16.3921
66.291261 85.420 -16.4829
66.771635 85.391 -16.5715
67.255489 85.362 -16.6581
67.742850 85.334 -16.7424
68.233743 85.306 -16.8243
68.728193 85.278 -16.9037
69.226226 85.250 -16.9814
69.727867 85.223 -17.0590
70.233144 85.196 -17.1378
70.742083 85.170 -17.2191
71.254709 85.143 -17.3027
71.771050 85.115 -17.3869
72.291132 85.087 -17.4694
72.814984 85.058 -17.5478
73.342631 85.029 -17.6214
73.874102 84.999 -17.6903
74.409424 84.970 -17.7559
74.948626 84.941 -17.8199
75.491734 84.911 -17.8837
76.038779 84.881 -17.9478
76.589787 84.851 -18.0111
77.144788 84.820 -18.0725
77.703811 84.789 -18.1317
78.266885 84.758 -18.1892
78.834039 84.726 -18.2454
79.405303 84.695 -18.3005
79.980706 84.664 -18.3550
80.560280 84.633 -18.4094
81.144053 84.603 -18.4641
81.732056 84.573 -18.5189
82.324320 84.542 -18.5721
82.920876 84.511 -18.6215
83.521755 84.481 -18.6640
84.126988 84.450 -18.6975
84.736607 84.420 -18.7215
85.350643 84.390 -18.7377
85.969129 84.361 -18.7496
86.592097 84.332 -18.7603
87.219579 84.304 -18.7716
87.851608 84.275 -18.7841
88.488217 84.246 -18.7977
89.129439 84.216 -18.8124
89.775308 84.186 -18.8290
90.425856 84.155 -18.8488
91.081119 84.125 -18.8718
91.741131 84.093 -18.8972
92.405925 84.062 -18.9230
93.075536 84.030 -18.9470
93.750000 83.998 -18.9673
94.429351 83.966 -18.9824
95.113625 83.935 -18.9906
95.802858 83.904 -18.9912
96.497085 83.873 -18.9853
