* Measurement data measured by REW V5.31.3
* Source: Headset (CX31993 HIFI AUDIO), MICROPHONE (Master Volume), R, volume: 0.250
* Format: 256k Log Swept Sine, 1 sweep at -12.0 dBFS with no timing reference
* Dated: 03 3, 25 11:09:07 AM
* REW Settings:
*  C-weighting compensation: Off
*  Target level: 75.0 dB
* Note: ; 
* Measurement: Moondrop Aria nobass L
* Smoothing: 1/12 octave
* Frequency Step: 96 ppo
* Start Frequency: 0.36621094 Hz
*
* Freq(Hz) SPL(dB) Phase(degrees)
0.366211 25.438 -110.2548
0.368865 25.433 -110.3039
0.371538 25.424 -110.3778
0.374230 25.414 -110.4716
0.376942 25.403 -110.5808
0.379673 25.391 -110.7022
0.382424 25.378 -110.8337
0.385196 25.365 -110.9740
0.387987 25.352 -111.1223
0.390798 25.339 -111.2782
0.393630 25.325 -111.4415
0.396483 25.311 -111.6121
0.399356 25.298 -111.7899
0.402250 25.284 -111.9750
0.405165 25.270 -112.1673
0.408101 25.256 -112.3668
0.411058 25.241 -112.5736
0.414037 25.227 -112.7876
0.417037 25.213 -113.0088
0.420059 25.198 -113.2372
0.423103 25.184 -113.4727
0.426169 25.169 -113.7155
0.429257 25.154 -113.9654
0.432368 25.139 -114.2225
0.435501 25.124 -114.4866
0.438656 25.109 -114.7578
0.441835 25.094 -115.0360
0.445037 25.078 -115.3212
0.448262 25.063 -115.6133
0.451510 25.047 -115.9123
0.454782 25.032 -116.2181
0.458077 25.016 -116.5307
0.461397 25.000 -116.8499
0.464740 24.984 -117.1759
0.468108 24.968 -117.5084
0.471500 24.951 -117.8474
0.474917 24.935 -118.1928
0.478358 24.918 -118.5446
0.481825 24.902 -118.9026
0.485316 24.885 -119.2669
0.488833 24.868 -119.6373
0.492375 24.851 -120.0138
0.495943 24.834 -120.3962
0.499537 24.817 -120.7845
0.503157 24.799 -121.1787
0.506803 24.782 -121.5786
0.510475 24.764 -121.9842
0.514175 24.747 -122.3954
0.517900 24.729 -122.8121
0.521653 24.711 -123.2343
0.525434 24.692 -123.6619
0.529241 24.674 -124.0949
0.533076 24.656 -124.5332
0.536939 24.637 -124.9768
0.540830 24.619 -125.4257
0.544749 24.600 -125.8798
0.548696 24.581 -126.3391
0.552673 24.562 -126.8036
0.556677 24.543 -127.2733
0.560711 24.523 -127.7484
0.564774 24.504 -128.2287
0.568867 24.484 -128.7143
0.572989 24.464 -129.2054
0.577141 24.444 -129.7021
0.581324 24.424 -130.2043
0.585536 24.404 -130.7123
0.589779 24.384 -131.2263
0.594053 24.363 -131.7464
0.598358 24.343 -132.2729
0.602694 24.322 -132.8060
0.607061 24.301 -133.3460
0.611460 24.280 -133.8932
0.615891 24.258 -134.4481
0.620354 24.237 -135.0110
0.624849 24.215 -135.5825
0.629377 24.194 -136.1630
0.633938 24.172 -136.7533
0.638532 24.150 -137.3539
0.643159 24.128 -137.9658
0.647819 24.105 -138.5896
0.652514 24.083 -139.2265
0.657242 24.060 -139.8774
0.662005 24.037 -140.5437
0.666802 24.014 -141.2266
0.671634 23.991 -141.9278
0.676501 23.968 -142.6490
0.681403 23.944 -143.3922
0.686341 23.921 -144.1596
0.691314 23.897 -144.9537
0.696324 23.874 -145.7777
0.701370 23.851 -146.6348
0.706452 23.829 -147.5292
0.711571 23.809 -148.4657
0.716728 23.793 -149.4503
0.721921 23.782 -150.4902
0.727153 23.779 -151.5941
0.732422 23.786 -152.7723
0.737729 23.806 -154.0366
0.743075 23.838 -155.3993
0.748460 23.880 -156.8725
0.753883 23.930 -158.4681
0.759346 23.986 -160.1977
0.764849 24.048 -162.0726
0.770391 24.115 -164.1041
0.775974 24.186 -166.3034
0.781597 24.260 -168.6812
0.787261 24.339 -171.2475
0.792966 24.421 -174.0109
0.798712 24.508 -176.9778
0.804500 24.598 179.8484
0.810329 24.691 176.4686
0.816201 24.789 172.8889
0.822116 24.890 169.1218
0.828073 24.995 165.1868
0.834074 25.103 161.1103
0.840118 25.215 156.9256
0.846206 25.331 152.6714
0.852338 25.451 148.3896
0.858514 25.574 144.1230
0.864735 25.700 139.9128
0.871001 25.830 135.7958
0.877313 25.964 131.8032
0.883670 26.101 127.9591
0.890074 26.242 124.2806
0.896524 26.386 120.7780
0.903020 26.533 117.4552
0.909564 26.683 114.3118
0.916155 26.837 111.3431
0.922794 26.994 108.5421
0.929481 27.154 105.8994
0.936216 27.317 103.4050
0.943000 27.483 101.0482
0.949834 27.652 98.8181
0.956717 27.823 96.7043
0.963649 27.997 94.6966
0.970632 28.174 92.7855
0.977666 28.354 90.9621
0.984750 28.536 89.2180
0.991886 28.720 87.5458
0.999074 28.906 85.9384
1.006314 29.095 84.3896
1.013606 29.285 82.8935
1.020951 29.477 81.4448
1.028349 29.671 80.0390
1.035801 29.867 78.6717
1.043307 30.064 77.3391
1.050867 30.262 76.0381
1.058482 30.462 74.7657
1.066152 30.662 73.5199
1.073878 30.865 72.2993
1.081660 31.069 71.1034
1.089498 31.275 69.9330
1.097393 31.484 68.7900
1.105345 31.696 67.6771
1.113355 31.913 66.5972
1.121423 32.135 65.5524
1.129549 32.362 64.5438
1.137734 32.595 63.5714
1.145979 32.833 62.6344
1.154283 33.078 61.7317
1.162647 33.327 60.8614
1.171072 33.582 60.0219
1.179558 33.842 59.2114
1.188106 34.107 58.4278
1.196715 34.377 57.6695
1.205387 34.651 56.9345
1.214122 34.930 56.2212
1.222920 35.212 55.5278
1.231782 35.498 54.8527
1.240708 35.787 54.1945
1.249699 36.079 53.5515
1.258754 36.374 52.9225
1.267876 36.671 52.3059
1.277063 36.970 51.7007
1.286318 37.270 51.1054
1.295639 37.572 50.5190
1.305027 37.875 49.9403
1.314484 38.178 49.3683
1.324009 38.481 48.8018
1.333604 38.783 48.2400
1.343268 39.084 47.6819
1.353002 39.384 47.1265
1.362806 39.682 46.5730
1.372681 39.977 46.0206
1.382628 40.270 45.4684
1.392647 40.558 44.9158
1.402739 40.843 44.3620
1.412904 41.123 43.8065
1.423142 41.397 43.2489
1.433455 41.667 42.6889
1.443843 41.930 42.1268
1.454305 42.188 41.5632
1.464844 42.440 40.9990
1.475459 42.687 40.4358
1.486150 42.929 39.8748
1.496920 43.166 39.3174
1.507767 43.399 38.7642
1.518693 43.627 38.2157
1.529698 43.852 37.6719
1.540783 44.074 37.1328
1.551948 44.291 36.5982
1.563194 44.506 36.0676
1.574521 44.717 35.5408
1.585931 44.925 35.0173
1.597423 45.129 34.4968
1.608999 45.332 33.9789
1.620658 45.531 33.4630
1.632402 45.728 32.9489
1.644232 45.923 32.4360
1.656146 46.115 31.9239
1.668147 46.306 31.4122
1.680235 46.495 30.9004
1.692411 46.683 30.3881
1.704675 46.870 29.8748
1.717028 47.055 29.3602
1.729470 47.240 28.8437
1.742003 47.425 28.3250
1.754626 47.609 27.8035
1.767341 47.794 27.2789
1.780147 47.978 26.7509
1.793047 48.164 26.2191
1.806040 48.349 25.6834
1.819128 48.534 25.1438
1.832310 48.720 24.6005
1.845587 48.904 24.0540
1.858961 49.088 23.5046
1.872432 49.270 22.9532
1.886001 49.451 22.4003
1.899667 49.629 21.8464
1.913433 49.806 21.2921
1.927299 49.981 20.7376
1.941265 50.154 20.1834
1.955332 50.325 19.6298
1.969501 50.495 19.0768
1.983773 50.662 18.5249
1.998148 50.829 17.9741
2.012627 50.994 17.4244
2.027212 51.158 16.8761
2.041902 51.320 16.3291
2.056698 51.482 15.7833
2.071602 51.642 15.2387
2.086614 51.802 14.6952
2.101734 51.961 14.1527
2.116964 52.120 13.6111
2.132304 52.278 13.0699
2.147756 52.435 12.5289
2.163320 52.592 11.9879
2.178996 52.749 11.4462
2.194786 52.905 10.9034
2.210690 53.060 10.3589
2.226710 53.214 9.8126
2.242845 53.367 9.2642
2.259098 53.518 8.7137
2.275468 53.668 8.1616
2.291957 53.816 7.6083
2.308566 53.963 7.0541
2.325295 54.108 6.4996
2.342145 54.252 5.9453
2.359117 54.395 5.3915
2.376212 54.537 4.8386
2.393431 54.677 4.2871
2.410775 54.817 3.7374
2.428244 54.955 3.1896
2.445840 55.093 2.6442
2.463564 55.230 2.1011
2.481416 55.366 1.5605
2.499397 55.502 1.0226
2.517509 55.637 0.4871
2.535752 55.772 -0.0465
2.554127 55.906 -0.5787
2.572635 56.039 -1.1101
2.591277 56.171 -1.6415
2.610055 56.302 -2.1735
2.628968 56.431 -2.7063
2.648019 56.560 -3.2399
2.667208 56.687 -3.7740
2.686535 56.813 -4.3082
2.706003 56.937 -4.8420
2.725612 57.061 -5.3751
2.745363 57.184 -5.9066
2.765257 57.305 -6.4362
2.785295 57.426 -6.9634
2.805478 57.546 -7.4876
2.825808 57.666 -8.0085
2.846285 57.785 -8.5258
2.866910 57.903 -9.0391
2.887685 58.021 -9.5486
2.908611 58.138 -10.0545
2.929688 58.255 -10.5572
2.950917 58.371 -11.0573
2.972301 58.486 -11.5555
2.993839 58.600 -12.0522
3.015534 58.713 -12.5478
3.037386 58.826 -13.0421
3.059396 58.937 -13.5350
3.081565 59.047 -14.0262
3.103896 59.157 -14.5156
3.126388 59.266 -15.0027
3.149043 59.374 -15.4871
3.171862 59.482 -15.9684
3.194847 59.589 -16.4464
3.217998 59.696 -16.9208
3.241317 59.803 -17.3914
3.264805 59.910 -17.8582
3.288463 60.016 -18.3212
3.312293 60.122 -18.7808
3.336295 60.227 -19.2373
3.360471 60.332 -19.6911
3.384822 60.436 -20.1424
3.409350 60.540 -20.5914
3.434056 60.643 -21.0382
3.458940 60.746 -21.4830
3.484005 60.848 -21.9255
3.509252 60.950 -22.3660
3.534681 61.051 -22.8042
3.560295 61.153 -23.2402
3.586094 61.254 -23.6738
3.612081 61.356 -24.1051
3.638255 61.457 -24.5339
3.664620 61.559 -24.9603
3.691175 61.660 -25.3842
3.717923 61.761 -25.8058
3.744864 61.862 -26.2253
3.772001 61.963 -26.6429
3.799335 62.063 -27.0588
3.826866 62.164 -27.4736
3.854597 62.264 -27.8872
3.882529 62.364 -28.3003
3.910664 62.465 -28.7129
3.939002 62.565 -29.1253
3.967546 62.665 -29.5377
3.996296 62.765 -29.9502
4.025255 62.866 -30.3628
4.054423 62.966 -30.7754
4.083804 63.067 -31.1880
4.113396 63.167 -31.6006
4.143204 63.267 -32.0132
4.173227 63.368 -32.4263
4.203468 63.468 -32.8399
4.233928 63.568 -33.2546
4.264609 63.669 -33.6706
4.295512 63.769 -34.0883
4.326639 63.869 -34.5079
4.357992 63.969 -34.9298
4.389572 64.068 -35.3540
4.421380 64.168 -35.7804
4.453419 64.268 -36.2092
4.485691 64.367 -36.6401
4.518196 64.466 -37.0732
4.550936 64.566 -37.5085
4.583914 64.664 -37.9460
4.617131 64.763 -38.3860
4.650589 64.861 -38.8286
4.684289 64.959 -39.2739
4.718233 65.057 -39.7220
4.752424 65.154 -40.1734
4.786862 65.250 -40.6279
4.821549 65.347 -41.0857
4.856488 65.442 -41.5466
4.891680 65.538 -42.0106
4.927127 65.632 -42.4773
4.962831 65.727 -42.9465
4.998794 65.820 -43.4180
5.035017 65.913 -43.8916
5.071503 66.006 -44.3674
5.108253 66.097 -44.8453
5.145270 66.188 -45.3257
5.182555 66.278 -45.8085
5.220110 66.368 -46.2938
5.257937 66.456 -46.7813
5.296038 66.544 -47.2706
5.334415 66.631 -47.7611
5.373071 66.717 -48.2524
5.412006 66.802 -48.7442
5.451224 66.887 -49.2361
5.490725 66.970 -49.7281
5.530514 67.053 -50.2205
5.570590 67.135 -50.7131
5.610957 67.215 -51.2059
5.651616 67.295 -51.6985
5.692570 67.374 -52.1903
5.733821 67.452 -52.6807
5.775370 67.529 -53.1691
5.817221 67.606 -53.6550
5.859375 67.681 -54.1384
5.901834 67.756 -54.6191
5.944602 67.830 -55.0974
5.987679 67.903 -55.5729
6.031068 67.975 -56.0454
6.074771 68.046 -56.5142
6.118792 68.117 -56.9789
6.163131 68.187 -57.4388
6.207792 68.257 -57.8937
6.252776 68.326 -58.3433
6.298086 68.394 -58.7877
6.343725 68.462 -59.2268
6.389694 68.530 -59.6606
6.435996 68.597 -60.0890
6.482634 68.664 -60.5115
6.529610 68.731 -60.9279
6.576926 68.798 -61.3380
6.624585 68.866 -61.7417
6.672590 68.933 -62.1391
6.720942 69.000 -62.5304
6.769645 69.068 -62.9159
6.818700 69.136 -63.2959
6.868111 69.204 -63.6708
6.917881 69.273 -64.0406
6.968010 69.343 -64.4056
7.018504 69.414 -64.7660
7.069362 69.485 -65.1221
7.120590 69.557 -65.4748
7.172189 69.630 -65.8248
7.224161 69.704 -66.1732
7.276511 69.779 -66.5206
7.329239 69.856 -66.8677
7.382350 69.933 -67.2150
7.435845 70.012 -67.5630
7.489729 70.091 -67.9127
7.544002 70.172 -68.2650
7.598669 70.253 -68.6212
7.653732 70.336 -68.9822
7.709194 70.419 -69.3489
7.765058 70.504 -69.7216
7.821327 70.589 -70.1008
7.878004 70.674 -70.4871
7.935091 70.760 -70.8811
7.992592 70.846 -71.2835
8.050510 70.933 -71.6948
8.108847 71.019 -72.1154
8.167607 71.105 -72.5449
8.226793 71.191 -72.9835
8.286408 71.276 -73.4305
8.346454 71.361 -73.8860
8.406936 71.444 -74.3493
8.467856 71.527 -74.8203
8.529218 71.608 -75.2983
8.591024 71.688 -75.7825
8.653278 71.766 -76.2715
8.715983 71.843 -76.7643
8.779143 71.919 -77.2596
8.842760 71.992 -77.7565
8.906839 72.064 -78.2540
8.971381 72.134 -78.7510
9.036392 72.203 -79.2458
9.101873 72.270 -79.7371
9.167829 72.335 -80.2235
9.234263 72.399 -80.7042
9.301178 72.461 -81.1785
9.368578 72.523 -81.6453
9.436467 72.583 -82.1040
9.504847 72.643 -82.5538
9.573723 72.702 -82.9945
9.643099 72.761 -83.4258
9.712976 72.820 -83.8483
9.783361 72.879 -84.2623
9.854255 72.938 -84.6684
9.925663 72.998 -85.0673
9.997588 73.058 -85.4600
10.070035 73.119 -85.8475
10.143007 73.181 -86.2316
10.216507 73.244 -86.6136
10.290540 73.307 -86.9951
10.365109 73.372 -87.3772
10.440219 73.437 -87.7612
10.515873 73.503 -88.1486
10.592076 73.569 -88.5405
10.668830 73.635 -88.9377
10.746141 73.701 -89.3408
10.824012 73.766 -89.7499
10.902447 73.831 -90.1649
10.981451 73.896 -90.5854
11.061027 73.959 -91.0110
11.141180 74.020 -91.4406
11.221913 74.081 -91.8727
11.303232 74.139 -92.3058
11.385140 74.196 -92.7383
11.467641 74.251 -93.1683
11.550741 74.304 -93.5944
11.634442 74.356 -94.0143
11.718750 74.406 -94.4265
11.803669 74.455 -94.8297
11.889203 74.503 -95.2226
11.975357 74.551 -95.6047
12.062136 74.598 -95.9754
12.149543 74.645 -96.3348
12.237583 74.692 -96.6835
12.326262 74.740 -97.0225
12.415583 74.789 -97.3533
12.505552 74.839 -97.6777
12.596172 74.891 -97.9974
12.687449 74.943 -98.3148
12.779387 74.997 -98.6321
12.871992 75.052 -98.9514
12.965268 75.108 -99.2744
13.059220 75.165 -99.6027
13.153852 75.222 -99.9372
13.249170 75.279 -100.2786
13.345179 75.335 -100.6266
13.441884 75.391 -100.9805
13.539289 75.446 -101.3391
13.637401 75.499 -101.7008
13.736223 75.552 -102.0635
13.835761 75.603 -102.4248
13.936021 75.652 -102.7825
14.037007 75.700 -103.1345
14.138725 75.748 -103.4789
14.241180 75.795 -103.8143
14.344377 75.842 -104.1401
14.448323 75.890 -104.4565
14.553021 75.938 -104.7645
14.658478 75.988 -105.0658
14.764700 76.039 -105.3632
14.871691 76.093 -105.6598
14.979457 76.149 -105.9595
15.088005 76.206 -106.2662
15.197339 76.265 -106.5837
15.307465 76.326 -106.9153
15.418389 76.387 -107.2638
15.530117 76.448 -107.6310
15.642655 76.508 -108.0173
15.756008 76.567 -108.4222
15.870182 76.624 -108.8439
15.985184 76.677 -109.2791
16.101019 76.727 -109.7238
16.217694 76.773 -110.1730
16.335214 76.815 -110.6215
16.453586 76.853 -111.0640
16.572815 76.887 -111.4951
16.692909 76.919 -111.9106
16.813872 76.948 -112.3073
16.935713 76.976 -112.6826
17.058436 77.004 -113.0364
17.182048 77.032 -113.3697
17.306556 77.061 -113.6849
17.431967 77.092 -113.9860
17.558286 77.125 -114.2779
17.685521 77.161 -114.5659
17.813677 77.199 -114.8552
17.942762 77.239 -115.1508
18.072783 77.280 -115.4565
18.203746 77.322 -115.7749
18.335658 77.364 -116.1069
18.468526 77.405 -116.4520
18.602356 77.444 -116.8085
18.737156 77.482 -117.1730
18.872934 77.517 -117.5422
19.009695 77.550 -117.9120
19.147447 77.581 -118.2789
19.286197 77.611 -118.6400
19.425953 77.640 -118.9934
19.566721 77.668 -119.3388
19.708510 77.696 -119.6769
19.851326 77.725 -120.0097
19.995177 77.755 -120.3399
20.140070 77.786 -120.6707
20.286013 77.818 -121.0049
20.433014 77.851 -121.3451
20.581080 77.884 -121.6926
20.730219 77.916 -122.0476
20.880439 77.948 -122.4091
21.031747 77.979 -122.7753
21.184152 78.009 -123.1436
21.337661 78.038 -123.5112
21.492282 78.067 -123.8762
21.648024 78.095 -124.2373
21.804895 78.125 -124.5945
21.962902 78.154 -124.9492
22.122054 78.186 -125.3041
22.282360 78.218 -125.6627
22.443827 78.252 -126.0286
22.606464 78.287 -126.4052
22.770280 78.322 -126.7942
22.935283 78.356 -127.1960
23.101481 78.388 -127.6089
23.268884 78.418 -128.0287
23.437500 78.445 -128.4501
23.607338 78.469 -128.8662
23.778406 78.489 -129.2699
23.950714 78.507 -129.6547
24.124271 78.523 -130.0153
24.299086 78.539 -130.3485
24.475167 78.554 -130.6534
24.652524 78.571 -130.9314
24.831166 78.590 -131.1856
25.011103 78.612 -131.4207
25.192344 78.636 -131.6415
25.374898 78.663 -131.8529
25.558775 78.693 -132.0590
25.743984 78.724 -132.2625
25.930536 78.757 -132.4651
26.118439 78.791 -132.6677
26.307704 78.826 -132.8707
26.498341 78.862 -133.0747
26.690359 78.899 -133.2809
26.883768 78.936 -133.4915
27.078579 78.974 -133.7089
27.274801 79.013 -133.9368
27.472446 79.052 -134.1782
27.671522 79.090 -134.4355
27.872042 79.126 -134.7097
28.074014 79.159 -134.9991
28.277450 79.190 -135.3005
28.482360 79.216 -135.6077
28.688755 79.238 -135.9134
28.896645 79.256 -136.2100
29.106042 79.272 -136.4912
29.316957 79.287 -136.7537
29.529400 79.302 -136.9984
29.743382 79.320 -137.2320
29.958915 79.342 -137.4653
30.176009 79.368 -137.7124
30.394677 79.397 -137.9871
30.614929 79.428 -138.2994
30.836778 79.457 -138.6525
31.060234 79.483 -139.0410
31.285309 79.502 -139.4505
31.512015 79.515 -139.8610
31.740364 79.522 -140.2505
31.970368 79.525 -140.6009
32.202039 79.528 -140.9025
32.435388 79.536 -141.1573
32.670428 79.551 -141.3784
32.907171 79.575 -141.5861
33.145630 79.607 -141.8010
33.385817 79.646 -142.0377
33.627745 79.688 -142.2997
33.871425 79.731 -142.5807
34.116871 79.775 -142.8690
34.364096 79.820 -143.1553
34.613113 79.870 -143.4405
34.863934 79.925 -143.7396
35.116572 79.987 -144.0791
35.371041 80.052 -144.4886
35.627354 80.115 -144.9881
35.885525 80.166 -145.5764
36.145566 80.198 -146.2263
36.407492 80.205 -146.8864
36.671316 80.185 -147.4916
36.937051 80.144 -147.9775
37.204712 80.090 -148.2971
37.474313 80.034 -148.4343
37.745867 79.987 -148.4098
38.019389 79.957 -148.2750
38.294893 79.948 -148.0972
38.572394 79.958 -147.9385
38.851905 79.979 -147.8422
39.133442 80.007 -147.8271
39.417019 80.035 -147.8922
39.702651 80.061 -148.0260
39.990353 80.082 -148.2155
40.280140 80.098 -148.4491
40.572026 80.108 -148.7170
40.866028 80.112 -149.0078
41.162160 80.110 -149.3073
41.460438 80.102 -149.6000
41.760877 80.091 -149.8742
42.063494 80.080 -150.1261
42.368303 80.072 -150.3618
42.675322 80.069 -150.5945
42.984565 80.070 -150.8375
43.296048 80.073 -151.0983
43.609789 80.078 -151.3755
43.925804 80.083 -151.6603
44.244108 80.087 -151.9420
44.564719 80.093 -152.2141
44.887654 80.102 -152.4764
45.212928 80.113 -152.7347
45.540560 80.126 -152.9958
45.870565 80.141 -153.2637
46.202962 80.155 -153.5370
46.537768 80.167 -153.8096
46.875000 80.177 -154.0735
47.214676 80.186 -154.3230
47.556813 80.193 -154.5559
47.901429 80.201 -154.7749
48.248542 80.209 -154.9855
48.598171 80.217 -155.1935
48.950334 80.225 -155.4029
49.305048 80.232 -155.6147
49.662333 80.237 -155.8276
50.022206 80.242 -156.0398
50.384688 80.245 -156.2504
50.749796 80.249 -156.4604
51.117550 80.253 -156.6722
51.487969 80.257 -156.8878
51.861072 80.261 -157.1077
52.236879 80.266 -157.3309
52.615409 80.270 -157.5557
52.996681 80.275 -157.7802
53.380717 80.280 -158.0038
53.767536 80.286 -158.2272
54.157158 80.293 -158.4527
54.549603 80.302 -158.6836
54.944892 80.310 -158.9232
55.343045 80.318 -159.1724
55.744084 80.323 -159.4276
56.148028 80.325 -159.6802
56.554900 80.325 -159.9199
56.964720 80.324 -160.1404
57.377510 80.324 -160.3449
57.793291 80.325 -160.5453
58.212085 80.327 -160.7552
58.633914 80.328 -160.9803
59.058799 80.325 -161.2125
59.486764 80.318 -161.4324
59.917829 80.308 -161.6208
60.352019 80.299 -161.7698
60.789354 80.294 -161.8873
61.229859 80.294 -161.9922
61.673556 80.300 -162.1044
62.120468 80.310 -162.2366
62.570618 80.321 -162.3921
63.024031 80.332 -162.5680
63.480729 80.341 -162.7584
63.940736 80.349 -162.9565
64.404077 80.355 -163.1558
64.870776 80.359 -163.3518
65.340856 80.363 -163.5440
65.814343 80.366 -163.7353
66.291261 80.369 -163.9293
66.771635 80.372 -164.1276
67.255489 80.373 -164.3280
67.742850 80.373 -164.5260
68.233743 80.371 -164.7169
68.728193 80.370 -164.8981
69.226226 80.370 -165.0702
69.727867 80.371 -165.2368
70.233144 80.374 -165.4022
70.742083 80.377 -165.5698
71.254709 80.382 -165.7422
71.771050 80.387 -165.9231
72.291132 80.391 -166.1160
72.814984 80.393 -166.3205
73.342631 80.392 -166.5291
73.874102 80.386 -166.7291
74.409424 80.378 -166.9109
74.948626 80.368 -167.0730
75.491734 80.359 -167.2206
76.038779 80.350 -167.3602
76.589787 80.342 -167.4963
77.144788 80.335 -167.6317
77.703811 80.329 -167.7689
78.266885 80.323 -167.9097
78.834039 80.318 -168.0547
79.405303 80.314 -168.2054
79.980706 80.310 -168.3645
80.560280 80.306 -168.5336
81.144053 80.301 -168.7101
81.732056 80.295 -168.8881
82.324320 80.287 -169.0625
82.920876 80.279 -169.2317
83.521755 80.271 -169.3956
84.126988 80.262 -169.5527
84.736607 80.254 -169.7012
85.350643 80.248 -169.8422
85.969129 80.243 -169.9803
86.592097 80.240 -170.1206
87.219579 80.237 -170.2648
87.851608 80.235 -170.4116
