* Measurement data measured by REW V5.31.3
* Source: Headset (2- CX31993 HIFI AUDIO), MICROPHONE (Master Volume), R, volume: 0.250
* Format: 256k Log Swept Sine, 1 sweep at -12.0 dBFS with no timing reference
* Dated: 11 9, 24 11:52:05 AM
* REW Settings:
*  C-weighting compensation: Off
*  Target level: 75.0 dB
* Note: ; 
* Measurement: Moondrop Kadenz KATO S R
* Smoothing: 1/12 octave
* Frequency Step: 96 ppo
* Start Frequency: 0.36621094 Hz
*
* Freq(Hz) SPL(dB) Phase(degrees)
0.366211 44.173 22.2518
0.368865 44.197 22.2605
0.371538 44.234 22.2738
0.374230 44.279 22.2908
0.376942 44.329 22.3108
0.379673 44.383 22.3332
0.382424 44.440 22.3579
0.385196 44.498 22.3844
0.387987 44.556 22.4127
0.390798 44.616 22.4427
0.393630 44.676 22.4744
0.396483 44.737 22.5076
0.399356 44.798 22.5422
0.402250 44.859 22.5784
0.405165 44.921 22.6160
0.408101 44.984 22.6550
0.411058 45.046 22.6953
0.414037 45.110 22.7368
0.417037 45.174 22.7797
0.420059 45.238 22.8237
0.423103 45.303 22.8688
0.426169 45.368 22.9150
0.429257 45.433 22.9623
0.432368 45.500 23.0105
0.435501 45.566 23.0597
0.438656 45.633 23.1097
0.441835 45.701 23.1605
0.445037 45.769 23.2120
0.448262 45.838 23.2642
0.451510 45.907 23.3170
0.454782 45.976 23.3703
0.458077 46.046 23.4241
0.461397 46.117 23.4784
0.464740 46.188 23.5329
0.468108 46.260 23.5877
0.471500 46.332 23.6427
0.474917 46.405 23.6978
0.478358 46.478 23.7529
0.481825 46.552 23.8080
0.485316 46.626 23.8630
0.488833 46.701 23.9178
0.492375 46.776 23.9723
0.495943 46.852 24.0264
0.499537 46.928 24.0801
0.503157 47.005 24.1333
0.506803 47.083 24.1859
0.510475 47.161 24.2378
0.514175 47.240 24.2889
0.517900 47.319 24.3392
0.521653 47.399 24.3886
0.525434 47.479 24.4369
0.529241 47.560 24.4841
0.533076 47.642 24.5301
0.536939 47.724 24.5748
0.540830 47.807 24.6182
0.544749 47.890 24.6601
0.548696 47.974 24.7004
0.552673 48.059 24.7392
0.556677 48.144 24.7762
0.560711 48.230 24.8114
0.564774 48.316 24.8447
0.568867 48.403 24.8760
0.572989 48.491 24.9053
0.577141 48.579 24.9324
0.581324 48.668 24.9574
0.585536 48.758 24.9799
0.589779 48.848 25.0001
0.594053 48.939 25.0179
0.598358 49.030 25.0330
0.602694 49.123 25.0455
0.607061 49.216 25.0553
0.611460 49.309 25.0623
0.615891 49.404 25.0664
0.620354 49.498 25.0675
0.624849 49.594 25.0657
0.629377 49.690 25.0607
0.633938 49.787 25.0525
0.638532 49.885 25.0411
0.643159 49.984 25.0264
0.647819 50.083 25.0082
0.652514 50.183 24.9867
0.657242 50.283 24.9616
0.662005 50.385 24.9329
0.666802 50.487 24.9006
0.671634 50.590 24.8645
0.676501 50.693 24.8247
0.681403 50.797 24.7811
0.686341 50.902 24.7337
0.691314 51.008 24.6823
0.696324 51.115 24.6270
0.701370 51.222 24.5678
0.706452 51.330 24.5047
0.711571 51.438 24.4379
0.716728 51.547 24.3676
0.721921 51.656 24.2943
0.727153 51.765 24.2184
0.732422 51.874 24.1409
0.737729 51.982 24.0628
0.743075 52.091 23.9850
0.748460 52.199 23.9081
0.753883 52.307 23.8327
0.759346 52.416 23.7590
0.764849 52.525 23.6871
0.770391 52.635 23.6168
0.775974 52.745 23.5481
0.781597 52.856 23.4808
0.787261 52.968 23.4147
0.792966 53.080 23.3496
0.798712 53.192 23.2853
0.804500 53.306 23.2216
0.810329 53.420 23.1582
0.816201 53.535 23.0950
0.822116 53.650 23.0318
0.828073 53.766 22.9682
0.834074 53.882 22.9043
0.840118 53.999 22.8396
0.846206 54.117 22.7742
0.852338 54.235 22.7076
0.858514 54.354 22.6398
0.864735 54.473 22.5706
0.871001 54.593 22.4997
0.877313 54.714 22.4270
0.883670 54.835 22.3524
0.890074 54.956 22.2755
0.896524 55.078 22.1963
0.903020 55.201 22.1145
0.909564 55.324 22.0300
0.916155 55.448 21.9427
0.922794 55.572 21.8522
0.929481 55.697 21.7586
0.936216 55.822 21.6616
0.943000 55.948 21.5610
0.949834 56.074 21.4567
0.956717 56.201 21.3486
0.963649 56.328 21.2364
0.970632 56.455 21.1201
0.977666 56.583 20.9995
0.984750 56.712 20.8744
0.991886 56.840 20.7447
0.999074 56.970 20.6102
1.006314 57.099 20.4708
1.013606 57.229 20.3264
1.020951 57.359 20.1769
1.028349 57.490 20.0221
1.035801 57.620 19.8618
1.043307 57.752 19.6961
1.050867 57.883 19.5248
1.058482 58.015 19.3480
1.066152 58.146 19.1656
1.073878 58.279 18.9778
1.081660 58.411 18.7850
1.089498 58.543 18.5879
1.097393 58.676 18.3872
1.105345 58.809 18.1840
1.113355 58.942 17.9792
1.121423 59.075 17.7739
1.129549 59.209 17.5685
1.137734 59.342 17.3634
1.145979 59.476 17.1587
1.154283 59.610 16.9543
1.162647 59.745 16.7502
1.171072 59.879 16.5462
1.179558 60.014 16.3421
1.188106 60.149 16.1379
1.196715 60.284 15.9331
1.205387 60.419 15.7278
1.214122 60.554 15.5216
1.222920 60.690 15.3144
1.231782 60.826 15.1059
1.240708 60.962 14.8960
1.249699 61.098 14.6845
1.258754 61.234 14.4711
1.267876 61.371 14.2558
1.277063 61.508 14.0382
1.286318 61.645 13.8182
1.295639 61.782 13.5956
1.305027 61.919 13.3702
1.314484 62.056 13.1419
1.324009 62.194 12.9103
1.333604 62.332 12.6754
1.343268 62.470 12.4370
1.353002 62.608 12.1948
1.362806 62.747 11.9487
1.372681 62.885 11.6985
1.382628 63.024 11.4440
1.392647 63.163 11.1851
1.402739 63.303 10.9217
1.412904 63.442 10.6536
1.423142 63.582 10.3808
1.433455 63.722 10.1036
1.443843 63.861 9.8221
1.454305 64.002 9.5370
1.464844 64.142 9.2489
1.475459 64.282 8.9588
1.486150 64.422 8.6676
1.496920 64.562 8.3759
1.507767 64.703 8.0842
1.518693 64.842 7.7926
1.529698 64.982 7.5011
1.540783 65.122 7.2096
1.551948 65.262 6.9177
1.563194 65.401 6.6253
1.574521 65.540 6.3321
1.585931 65.679 6.0377
1.597423 65.819 5.7418
1.608999 65.958 5.4442
1.620658 66.096 5.1444
1.632402 66.235 4.8423
1.644232 66.374 4.5374
1.656146 66.513 4.2295
1.668147 66.651 3.9183
1.680235 66.790 3.6034
1.692411 66.928 3.2845
1.704675 67.066 2.9613
1.717028 67.205 2.6335
1.729470 67.343 2.3008
1.742003 67.482 1.9629
1.754626 67.620 1.6196
1.767341 67.759 1.2706
1.780147 67.897 0.9157
1.793047 68.035 0.5550
1.806040 68.174 0.1884
1.819128 68.312 -0.1837
1.832310 68.451 -0.5609
1.845587 68.589 -0.9424
1.858961 68.727 -1.3277
1.872432 68.864 -1.7160
1.886001 69.001 -2.1070
1.899667 69.138 -2.5003
1.913433 69.275 -2.8958
1.927299 69.411 -3.2933
1.941265 69.547 -3.6928
1.955332 69.682 -4.0943
1.969501 69.817 -4.4978
1.983773 69.952 -4.9034
1.998148 70.087 -5.3112
2.012627 70.221 -5.7212
2.027212 70.354 -6.1335
2.041902 70.488 -6.5483
2.056698 70.621 -6.9658
2.071602 70.755 -7.3860
2.086614 70.887 -7.8091
2.101734 71.020 -8.2354
2.116964 71.153 -8.6649
2.132304 71.285 -9.0979
2.147756 71.417 -9.5345
2.163320 71.549 -9.9749
2.178996 71.681 -10.4192
2.194786 71.812 -10.8672
2.210690 71.944 -11.3190
2.226710 72.074 -11.7743
2.242845 72.204 -12.2330
2.259098 72.334 -12.6946
2.275468 72.463 -13.1591
2.291957 72.592 -13.6262
2.308566 72.720 -14.0956
2.325295 72.848 -14.5673
2.342145 72.975 -15.0411
2.359117 73.101 -15.5168
2.376212 73.227 -15.9944
2.393431 73.353 -16.4738
2.410775 73.478 -16.9551
2.428244 73.603 -17.4380
2.445840 73.727 -17.9228
2.463564 73.851 -18.4094
2.481416 73.975 -18.8979
2.499397 74.098 -19.3885
2.517509 74.221 -19.8812
2.535752 74.344 -20.3763
2.554127 74.466 -20.8741
2.572635 74.588 -21.3747
2.591277 74.709 -21.8784
2.610055 74.829 -22.3852
2.628968 74.949 -22.8951
2.648019 75.069 -23.4079
2.667208 75.187 -23.9234
2.686535 75.305 -24.4413
2.706003 75.423 -24.9613
2.725612 75.539 -25.4831
2.745363 75.655 -26.0065
2.765257 75.771 -26.5312
2.785295 75.886 -27.0571
2.805478 76.000 -27.5839
2.825808 76.114 -28.1115
2.846285 76.228 -28.6399
2.866910 76.341 -29.1690
2.887685 76.454 -29.6991
2.908611 76.566 -30.2304
2.929688 76.678 -30.7631
2.950917 76.789 -31.2978
2.972301 76.899 -31.8348
2.993839 77.009 -32.3742
3.015534 77.118 -32.9160
3.037386 77.226 -33.4600
3.059396 77.334 -34.0060
3.081565 77.441 -34.5536
3.103896 77.547 -35.1025
3.126388 77.652 -35.6523
3.149043 77.757 -36.2026
3.171862 77.862 -36.7533
3.194847 77.966 -37.3039
3.217998 78.069 -37.8544
3.241317 78.172 -38.4048
3.264805 78.275 -38.9551
3.288463 78.377 -39.5057
3.312293 78.478 -40.0569
3.336295 78.579 -40.6093
3.360471 78.679 -41.1630
3.384822 78.778 -41.7183
3.409350 78.876 -42.2750
3.434056 78.974 -42.8329
3.458940 79.072 -43.3917
3.484005 79.168 -43.9511
3.509252 79.264 -44.5108
3.534681 79.359 -45.0704
3.560295 79.454 -45.6297
3.586094 79.549 -46.1886
3.612081 79.643 -46.7469
3.638255 79.736 -47.3049
3.664620 79.829 -47.8627
3.691175 79.921 -48.4208
3.717923 80.013 -48.9796
3.744864 80.104 -49.5392
3.772001 80.194 -50.0996
3.799335 80.284 -50.6609
3.826866 80.373 -51.2226
3.854597 80.461 -51.7846
3.882529 80.549 -52.3465
3.910664 80.636 -52.9082
3.939002 80.723 -53.4693
3.967546 80.809 -54.0299
3.996296 80.895 -54.5899
4.025255 80.980 -55.1495
4.054423 81.065 -55.7090
4.083804 81.149 -56.2688
4.113396 81.233 -56.8291
4.143204 81.316 -57.3898
4.173227 81.398 -57.9510
4.203468 81.480 -58.5123
4.233928 81.561 -59.0737
4.264609 81.641 -59.6348
4.295512 81.721 -60.1955
4.326639 81.801 -60.7556
4.357992 81.880 -61.3152
4.389572 81.958 -61.8744
4.421380 82.036 -62.4336
4.453419 82.113 -62.9930
4.485691 82.190 -63.5527
4.518196 82.265 -64.1127
4.550936 82.341 -64.6729
4.583914 82.415 -65.2330
4.617131 82.489 -65.7927
4.650589 82.563 -66.3518
4.684289 82.635 -66.9101
4.718233 82.708 -67.4676
4.752424 82.779 -68.0244
4.786862 82.850 -68.5806
4.821549 82.920 -69.1366
4.856488 82.990 -69.6925
4.891680 83.059 -70.2481
4.927127 83.127 -70.8033
4.962831 83.194 -71.3578
4.998794 83.261 -71.9111
5.035017 83.327 -72.4631
5.071503 83.392 -73.0134
5.108253 83.457 -73.5620
5.145270 83.521 -74.1092
5.182555 83.585 -74.6551
5.220110 83.647 -75.1998
5.257937 83.709 -75.7432
5.296038 83.770 -76.2853
5.334415 83.831 -76.8254
5.373071 83.891 -77.3634
5.412006 83.950 -77.8989
5.451224 84.008 -78.4315
5.490725 84.066 -78.9613
5.530514 84.124 -79.4884
5.570590 84.180 -80.0128
5.610957 84.236 -80.5347
5.651616 84.292 -81.0539
5.692570 84.347 -81.5702
5.733821 84.401 -82.0834
5.775370 84.455 -82.5932
5.817221 84.508 -83.0993
5.859375 84.561 -83.6016
5.901834 84.614 -84.1002
5.944602 84.666 -84.5952
5.987679 84.718 -85.0866
6.031068 84.769 -85.5746
6.074771 84.821 -86.0591
6.118792 84.872 -86.5402
6.163131 84.922 -87.0177
6.207792 84.973 -87.4917
6.252776 85.024 -87.9621
6.298086 85.074 -88.4290
6.343725 85.124 -88.8926
6.389694 85.175 -89.3532
6.435996 85.225 -89.8111
6.482634 85.275 -90.2665
6.529610 85.326 -90.7197
6.576926 85.376 -91.1708
6.624585 85.427 -91.6199
6.672590 85.478 -92.0673
6.720942 85.529 -92.5132
6.769645 85.580 -92.9579
6.818700 85.631 -93.4018
6.868111 85.682 -93.8455
6.917881 85.734 -94.2892
6.968010 85.785 -94.7334
7.018504 85.837 -95.1780
7.069362 85.889 -95.6234
7.120590 85.941 -96.0698
7.172189 85.993 -96.5176
7.224161 86.045 -96.9669
7.276511 86.097 -97.4182
7.329239 86.148 -97.8718
7.382350 86.200 -98.3278
7.435845 86.251 -98.7862
7.489729 86.303 -99.2471
7.544002 86.354 -99.7106
7.598669 86.404 -100.1767
7.653732 86.454 -100.6455
7.709194 86.504 -101.1169
7.765058 86.553 -101.5910
7.821327 86.602 -102.0677
7.878004 86.650 -102.5468
7.935091 86.697 -103.0279
7.992592 86.744 -103.5108
8.050510 86.789 -103.9952
8.108847 86.834 -104.4810
8.167607 86.878 -104.9680
8.226793 86.921 -105.4559
8.286408 86.964 -105.9441
8.346454 87.005 -106.4322
8.406936 87.045 -106.9198
8.467856 87.085 -107.4066
8.529218 87.123 -107.8923
8.591024 87.161 -108.3765
8.653278 87.197 -108.8588
8.715983 87.233 -109.3389
8.779143 87.268 -109.8162
8.842760 87.302 -110.2904
8.906839 87.335 -110.7614
8.971381 87.367 -111.2289
9.036392 87.399 -111.6926
9.101873 87.430 -112.1522
9.167829 87.460 -112.6076
9.234263 87.490 -113.0586
9.301178 87.519 -113.5051
9.368578 87.548 -113.9470
9.436467 87.577 -114.3843
9.504847 87.605 -114.8170
9.573723 87.632 -115.2450
9.643099 87.660 -115.6684
9.712976 87.687 -116.0874
9.783361 87.714 -116.5019
9.854255 87.741 -116.9123
9.925663 87.768 -117.3186
9.997588 87.795 -117.7210
10.070035 87.822 -118.1196
10.143007 87.849 -118.5148
10.216507 87.876 -118.9068
10.290540 87.903 -119.2959
10.365109 87.930 -119.6822
10.440219 87.958 -120.0660
10.515873 87.985 -120.4477
10.592076 88.013 -120.8276
10.668830 88.041 -121.2060
10.746141 88.069 -121.5832
10.824012 88.098 -121.9596
10.902447 88.126 -122.3354
10.981451 88.155 -122.7110
11.061027 88.184 -123.0868
11.141180 88.213 -123.4631
11.221913 88.243 -123.8402
11.303232 88.272 -124.2185
11.385140 88.302 -124.5984
11.467641 88.331 -124.9800
11.550741 88.361 -125.3637
11.634442 88.391 -125.7498
11.718750 88.420 -126.1385
11.803669 88.450 -126.5300
11.889203 88.479 -126.9244
11.975357 88.508 -127.3219
12.062136 88.537 -127.7226
12.149543 88.565 -128.1265
12.237583 88.593 -128.5335
12.326262 88.621 -128.9435
12.415583 88.647 -129.3564
12.505552 88.673 -129.7720
12.596172 88.698 -130.1899
12.687449 88.722 -130.6098
12.779387 88.746 -131.0313
12.871992 88.768 -131.4538
12.965268 88.789 -131.8768
13.059220 88.810 -132.2996
13.153852 88.829 -132.7215
13.249170 88.847 -133.1416
13.345179 88.863 -133.5592
13.441884 88.879 -133.9733
13.539289 88.894 -134.3831
13.637401 88.907 -134.7875
13.736223 88.920 -135.1857
13.835761 88.931 -135.5768
13.936021 88.942 -135.9599
14.037007 88.952 -136.3345
14.138725 88.962 -136.7000
14.241180 88.972 -137.0561
14.344377 88.982 -137.4027
14.448323 88.992 -137.7399
14.553021 89.003 -138.0682
14.658478 89.014 -138.3883
14.764700 89.027 -138.7013
14.871691 89.040 -139.0085
14.979457 89.055 -139.3114
15.088005 89.071 -139.6120
15.197339 89.089 -139.9118
15.307465 89.107 -140.2130
15.418389 89.128 -140.5172
15.530117 89.149 -140.8261
15.642655 89.171 -141.1412
15.756008 89.193 -141.4634
15.870182 89.216 -141.7933
15.985184 89.239 -142.1312
16.101019 89.261 -142.4767
16.217694 89.283 -142.8289
16.335214 89.303 -143.1869
16.453586 89.323 -143.5491
16.572815 89.341 -143.9138
16.692909 89.358 -144.2793
16.813872 89.374 -144.6440
16.935713 89.389 -145.0064
17.058436 89.403 -145.3654
17.182048 89.417 -145.7202
17.306556 89.429 -146.0706
17.431967 89.442 -146.4169
17.558286 89.454 -146.7595
17.685521 89.466 -147.0996
17.813677 89.479 -147.4382
17.942762 89.491 -147.7763
18.072783 89.503 -148.1151
18.203746 89.514 -148.4549
18.335658 89.525 -148.7959
18.468526 89.535 -149.1375
18.602356 89.544 -149.4788
18.737156 89.552 -149.8181
18.872934 89.559 -150.1534
19.009695 89.564 -150.4826
19.147447 89.568 -150.8036
19.286197 89.571 -151.1150
19.425953 89.574 -151.4156
19.566721 89.577 -151.7054
19.708510 89.580 -151.9852
19.851326 89.585 -152.2569
19.995177 89.590 -152.5231
20.140070 89.597 -152.7871
20.286013 89.606 -153.0523
20.433014 89.615 -153.3218
20.581080 89.625 -153.5983
20.730219 89.635 -153.8832
20.880439 89.645 -154.1767
21.031747 89.654 -154.4775
21.184152 89.661 -154.7832
21.337661 89.666 -155.0903
21.492282 89.669 -155.3948
21.648024 89.671 -155.6929
21.804895 89.671 -155.9811
21.962902 89.671 -156.2575
22.122054 89.671 -156.5214
22.282360 89.671 -156.7743
22.443827 89.674 -157.0191
22.606464 89.678 -157.2604
22.770280 89.684 -157.5034
22.935283 89.693 -157.7533
23.101481 89.702 -158.0147
23.268884 89.713 -158.2906
23.437500 89.722 -158.5822
23.607338 89.731 -158.8881
23.778406 89.738 -159.2051
23.950714 89.741 -159.5282
24.124271 89.743 -159.8515
24.299086 89.741 -160.1690
24.475167 89.738 -160.4755
24.652524 89.733 -160.7675
24.831166 89.728 -161.0436
25.011103 89.724 -161.3048
25.192344 89.721 -161.5542
25.374898 89.721 -161.7966
25.558775 89.722 -162.0377
25.743984 89.726 -162.2828
25.930536 89.731 -162.5363
26.118439 89.737 -162.8007
26.307704 89.743 -163.0765
26.498341 89.747 -163.3621
26.690359 89.751 -163.6541
26.883768 89.752 -163.9483
27.078579 89.753 -164.2401
27.274801 89.751 -164.5260
27.472446 89.749 -164.8034
27.671522 89.747 -165.0715
27.872042 89.745 -165.3313
28.074014 89.743 -165.5847
28.277450 89.743 -165.8346
28.482360 89.743 -166.0838
28.688755 89.744 -166.3344
28.896645 89.745 -166.5873
29.106042 89.745 -166.8424
29.316957 89.745 -167.0984
29.529400 89.745 -167.3535
29.743382 89.744 -167.6061
29.958915 89.742 -167.8550
30.176009 89.740 -168.1000
30.394677 89.739 -168.3421
30.614929 89.738 -168.5832
30.836778 89.737 -168.8253
31.060234 89.736 -169.0705
31.285309 89.735 -169.3198
31.512015 89.734 -169.5730
31.740364 89.731 -169.8286
31.970368 89.727 -170.0842
32.202039 89.722 -170.3370
32.435388 89.716 -170.5845
32.670428 89.709 -170.8253
32.907171 89.703 -171.0598
33.145630 89.697 -171.2899
33.385817 89.692 -171.5189
33.627745 89.688 -171.7506
33.871425 89.685 -171.9886
34.116871 89.681 -172.2348
34.364096 89.676 -172.4890
34.613113 89.671 -172.7483
34.863934 89.663 -173.0080
35.116572 89.653 -173.2621
35.371041 89.642 -173.5049
35.627354 89.631 -173.7328
35.885525 89.620 -173.9453
36.145566 89.611 -174.1456
36.407492 89.605 -174.3400
36.671316 89.601 -174.5367
36.937051 89.600 -174.7433
37.204712 89.599 -174.9652
37.474313 89.599 -175.2035
37.745867 89.597 -175.4553
38.019389 89.593 -175.7144
38.294893 89.586 -175.9732
38.572394 89.577 -176.2249
38.851905 89.567 -176.4655
39.133442 89.556 -176.6944
39.417019 89.546 -176.9139
39.702651 89.536 -177.1282
39.990353 89.527 -177.3410
40.280140 89.518 -177.5547
40.572026 89.508 -177.7692
40.866028 89.497 -177.9827
41.162160 89.485 -178.1930
41.460438 89.473 -178.3983
41.760877 89.461 -178.5986
42.063494 89.449 -178.7954
42.368303 89.438 -178.9916
42.675322 89.427 -179.1901
42.984565 89.415 -179.3925
43.296048 89.403 -179.5986
43.609789 89.391 -179.8062
43.925804 89.377 179.9883
44.244108 89.362 179.7878
44.564719 89.348 179.5939
44.887654 89.334 179.4056
45.212928 89.321 179.2193
45.540560 89.310 179.0306
45.870565 89.299 178.8358
46.202962 89.288 178.6333
46.537768 89.276 178.4246
46.875000 89.263 178.2136
47.214676 89.250 178.0048
47.556813 89.235 177.8018
47.901429 89.220 177.6060
48.248542 89.205 177.4163
48.598171 89.191 177.2301
48.950334 89.177 177.0447
49.305048 89.164 176.8587
49.662333 89.150 176.6721
50.022206 89.136 176.4869
50.384688 89.121 176.3051
50.749796 89.107 176.1278
51.117550 89.094 175.9536
51.487969 89.081 175.7787
51.861072 89.070 175.5983
52.236879 89.059 175.4084
52.615409 89.047 175.2080
52.996681 89.034 174.9999
53.380717 89.019 174.7896
53.767536 89.003 174.5829
54.157158 88.985 174.3838
54.549603 88.967 174.1936
54.944892 88.949 174.0113
55.343045 88.931 173.8348
55.744084 88.913 173.6624
56.148028 88.895 173.4933
56.554900 88.876 173.3283
56.964720 88.858 173.1685
57.377510 88.839 173.0144
57.793291 88.821 172.8643
58.212085 88.804 172.7137
58.633914 88.788 172.5573
59.058799 88.772 172.3910
59.486764 88.754 172.2148
59.917829 88.736 172.0325
60.352019 88.715 171.8493
60.789354 88.694 171.6685
61.229859 88.673 171.4906
61.673556 88.651 171.3146
62.120468 88.629 171.1409
62.570618 88.606 170.9715
63.024031 88.584 170.8083
63.480729 88.563 170.6503
63.940736 88.543 170.4933
64.404077 88.523 170.3322
64.870776 88.504 170.1643
65.340856 88.483 169.9907
65.814343 88.461 169.8161
66.291261 88.436 169.6471
66.771635 88.410 169.4907
67.255489 88.382 169.3514
67.742850 88.355 169.2292
68.233743 88.329 169.1183
68.728193 88.305 169.0101
69.226226 88.282 168.8978
69.727867 88.259 168.7796
70.233144 88.237 168.6574
70.742083 88.214 168.5330
71.254709 88.192 168.4059
71.771050 88.169 168.2747
72.291132 88.146 168.1397
72.814984 88.122 168.0032
73.342631 88.096 167.8680
73.874102 88.069 167.7360
74.409424 88.041 167.6088
74.948626 88.011 167.4888
75.491734 87.979 167.3781
76.038779 87.946 167.2774
76.589787 87.914 167.1851
77.144788 87.881 167.0971
77.703811 87.849 167.0086
78.266885 87.818 166.9155
78.834039 87.787 166.8162
79.405303 87.757 166.7106
79.980706 87.726 166.5982
80.560280 87.696 166.4786
81.144053 87.664 166.3558
81.732056 87.630 166.2404
82.324320 87.595 166.1445
82.920876 87.559 166.0729
83.521755 87.525 166.0218
84.126988 87.490 165.9843
84.736607 87.456 165.9584
85.350643 87.420 165.9468
85.969129 87.383 165.9518
86.592097 87.346 165.9728
87.219579 87.308 166.0082
87.851608 87.269 166.0572
88.488217 87.231 166.1201
89.129439 87.193 166.1969
89.775308 87.155 166.2886
90.425856 87.118 166.3991
91.081119 87.083 166.5356
91.741131 87.051 166.7039
92.405925 87.025 166.9038
93.075536 87.005 167.1281
93.750000 86.994 167.3646
