* Measurement data measured by REW V5.31
* Source: Headset (CX31993 HIFI AUDIO), MICROPHONE (Master Volume), R, volume: 0.600
* Format: 256k Log Swept Sine, 1 sweep at -12.0 dBFS with no timing reference
* Dated: May 1, 2024 5:53:44 PM
* REW Settings:
*  C-weighting compensation: Off
*  Target level: 75.0 dB
* Note: ; 
* Measurement: Moondrop Starfield2 LDF R
* Smoothing: 1/24 octave
* Frequency Step: 96 ppo
* Start Frequency: 20.141602 Hz
*
* Freq(Hz) SPL(dB) Phase(degrees)
20.141602 96.431 -158.1758
20.287556 96.437 -158.4788
20.434568 96.446 -158.9511
20.582645 96.454 -159.5299
20.731796 96.459 -160.1692
20.882027 96.460 -160.8163
21.033346 96.456 -161.4239
21.185763 96.452 -161.9417
21.339284 96.449 -162.3183
21.493917 96.455 -162.5238
21.649671 96.477 -162.5407
21.806553 96.521 -162.3741
21.964572 96.592 -162.0641
22.123737 96.693 -161.6672
22.284054 96.822 -161.2577
22.445534 96.971 -160.9190
22.608183 97.131 -160.7119
22.772012 97.286 -160.6894
22.937027 97.424 -160.8716
23.103238 97.530 -161.2520
23.270654 97.595 -161.8076
23.439282 97.611 -162.4872
23.609133 97.574 -163.2344
23.780215 97.488 -163.9855
23.952536 97.358 -164.6738
24.126106 97.194 -165.2505
24.300934 97.014 -165.6758
24.477028 96.833 -165.9418
24.654399 96.670 -166.0691
24.833055 96.539 -166.1031
25.013005 96.449 -166.1161
25.194260 96.402 -166.1724
25.376828 96.391 -166.3296
25.560719 96.406 -166.6095
25.745942 96.433 -167.0024
25.932508 96.461 -167.4724
26.120426 96.481 -167.9619
26.309705 96.489 -168.4196
26.500356 96.488 -168.8012
26.692388 96.480 -169.0948
26.885812 96.473 -169.3177
27.080638 96.472 -169.5185
27.276876 96.478 -169.7661
27.474535 96.490 -170.1274
27.673627 96.501 -170.6536
27.874161 96.503 -171.3569
28.076149 96.487 -172.2129
28.279600 96.448 -173.1494
28.484526 96.386 -174.0746
28.690937 96.307 -174.8738
28.898843 96.223 -175.4530
29.108256 96.150 -175.7431
29.319186 96.105 -175.7352
29.531645 96.101 -175.4749
29.745644 96.143 -175.0656
29.961193 96.224 -174.6239
30.178304 96.329 -174.2621
30.396989 96.438 -174.0439
30.617258 96.530 -173.9877
30.839123 96.592 -174.0648
31.062596 96.616 -174.2258
31.287688 96.603 -174.4111
31.514412 96.563 -174.5800
31.742778 96.508 -174.7141
31.972800 96.451 -174.8270
32.204488 96.403 -174.9505
32.437855 96.371 -175.1256
32.672913 96.354 -175.3778
32.909674 96.348 -175.7089
33.148151 96.348 -176.0914
33.388356 96.347 -176.4801
33.630302 96.343 -176.8265
33.874001 96.337 -177.0923
34.119466 96.331 -177.2655
34.366710 96.326 -177.3595
34.615745 96.324 -177.4111
34.866585 96.323 -177.4633
35.119243 96.321 -177.5536
35.373731 96.316 -177.7052
35.630064 96.306 -177.9218
35.888254 96.292 -178.1930
36.148315 96.277 -178.5005
36.410261 96.263 -178.8258
36.674104 96.255 -179.1555
36.939860 96.252 -179.4799
37.207542 96.254 -179.7919
37.477163 96.257 179.9168
37.748738 96.260 179.6562
38.022281 96.258 179.4363
38.297806 96.251 179.2633
38.575327 96.240 179.1352
38.854860 96.227 179.0402
39.136419 96.213 178.9573
39.420017 96.201 178.8605
39.705671 96.191 178.7267
39.993395 96.183 178.5408
40.283203 96.177 178.3000
40.575112 96.170 178.0144
40.869136 96.162 177.7049
41.165290 96.154 177.3962
41.463591 96.146 177.1100
41.764053 96.142 176.8593
42.066693 96.142 176.6447
42.371525 96.146 176.4557
42.678567 96.151 176.2782
42.987834 96.154 176.1022
43.299341 96.152 175.9276
43.613106 96.142 175.7621
43.929145 96.126 175.6149
44.247473 96.107 175.4842
44.568109 96.091 175.3495
44.891068 96.081 175.1754
45.216367 96.079 174.9266
45.544023 96.078 174.5882
45.874054 96.074 174.1783
46.206476 96.060 173.7481
46.541307 96.036 173.3649
46.878565 96.005 173.0858
47.218266 95.975 172.9323
47.560429 95.953 172.8802
47.905072 95.939 172.8732
48.252212 95.932 172.8499
48.601867 95.926 172.7703
48.954056 95.916 172.6266
49.308798 95.898 172.4365
49.666109 95.874 172.2261
50.026010 95.848 172.0143
50.388520 95.823 171.8061
50.753656 95.801 171.5970
51.121437 95.782 171.3808
51.491884 95.766 171.1550
51.865016 95.753 170.9202
52.240851 95.745 170.6763
52.619410 95.743 170.4219
53.000712 95.744 170.1578
53.384777 95.747 169.8926
53.771625 95.746 169.6442
54.161276 95.739 169.4332
54.553751 95.725 169.2712
54.949070 95.705 169.1515
55.347254 95.680 169.0502
55.748323 95.653 168.9390
56.152298 95.625 168.8012
56.559201 95.598 168.6406
56.969052 95.577 168.4747
57.381873 95.566 168.3194
57.797686 95.568 168.1783
58.216512 95.577 168.0477
58.638373 95.586 167.9300
59.063291 95.586 167.8407
59.491288 95.575 167.7955
59.922386 95.552 167.7874
60.356608 95.522 167.7760
60.793977 95.485 167.7057
61.234515 95.443 167.5415
61.678246 95.396 167.2895
62.125192 95.350 166.9825
62.575377 95.318 166.6431
63.028824 95.305 166.2651
63.485557 95.309 165.8390
63.945599 95.315 165.3979
64.408975 95.307 165.0320
64.875709 95.282 164.8399
65.345825 95.248 164.8510
65.819348 95.216 164.9860
66.296302 95.195 165.1018
66.776713 95.182 165.0923
67.260604 95.173 164.9498
67.748002 95.166 164.7354
68.238932 95.164 164.4985
68.733420 95.162 164.2399
69.231490 95.144 163.9515
69.733170 95.099 163.6741
70.238485 95.033 163.4830
70.747463 94.971 163.3966
71.260128 94.939 163.3152
71.776508 94.935 163.0981
72.296630 94.931 162.7309
72.820521 94.898 162.3838
73.348209 94.836 162.2662
73.879720 94.775 162.4041
74.415083 94.746 162.5826
74.954326 94.747 162.5522
75.497475 94.757 162.2751
76.044561 94.757 161.9282
76.595612 94.751 161.6904
77.150655 94.744 161.5788
77.709720 94.729 161.5051
78.272837 94.697 161.4269
78.840034 94.649 161.3758
79.411342 94.604 161.3672
79.986789 94.575 161.3581
80.566406 94.560 161.2955
81.150224 94.551 161.1485
81.738272 94.541 160.8947
82.330581 94.522 160.5384
82.927182 94.494 160.1549
83.528107 94.462 159.8538
84.133386 94.434 159.6725
84.743051 94.407 159.5496
85.357134 94.369 159.4150
85.975667 94.323 159.2360
86.598682 94.286 158.9896
87.226212 94.268 158.7245
87.858289 94.263 158.6632
88.494946 94.271 159.0474
89.136217 94.302 159.7432
89.782135 94.338 160.2136
90.432733 94.330 160.0592
91.088046 94.261 159.4242
91.748108 94.175 158.7275
92.412952 94.131 158.1846
93.082615 94.121 157.7704
93.757130 94.094 157.4924
94.436533 94.025 157.4113
95.120859 93.936 157.4536
95.810144 93.859 157.4549
96.504423 93.803 157.3624
97.203734 93.766 157.2378
97.908112 93.740 157.1153
98.617595 93.715 156.9759
99.332219 93.690 156.8112
100.052021 93.668 156.6318
100.777039 93.647 156.4540
101.507311 93.617 156.3135
102.242875 93.581 156.2415
102.983769 93.548 156.2072
103.730032 93.521 156.1457
104.481702 93.494 156.0502
105.238820 93.462 155.9681
106.001424 93.431 155.9132
106.769554 93.405 155.8448
107.543250 93.380 155.7329
108.322553 93.352 155.5985
109.107503 93.322 155.4738
109.898141 93.291 155.3616
110.694508 93.256 155.2554
111.496646 93.213 155.1577
112.304596 93.169 155.0635
113.118402 93.130 154.9888
113.938104 93.099 155.0228
114.763747 93.076 155.2498
115.595372 93.059 155.5612
116.433024 93.037 155.6867
117.276746 92.999 155.4964
118.126581 92.950 155.1179
118.982575 92.903 154.7512
119.844772 92.855 154.5078
120.713217 92.800 154.3938
121.587954 92.737 154.3710
122.469031 92.677 154.4090
123.356492 92.636 154.4443
124.250384 92.611 154.3778
125.150753 92.583 154.2015
126.057647 92.540 154.0279
126.971113 92.496 153.9261
127.891198 92.463 153.8585
128.817950 92.439 153.8154
129.751418 92.413 153.8340
130.691651 92.381 153.8779
131.638696 92.342 153.8676
132.592604 92.295 153.8087
133.553425 92.245 153.7900
134.521208 92.197 153.8536
135.496004 92.155 153.9494
136.477864 92.117 154.0391
137.466839 92.083 154.1438
138.462981 92.050 154.2703
139.466340 92.012 154.3611
140.476971 91.965 154.3583
141.494925 91.912 154.2914
142.520256 91.870 154.2578
143.553016 91.858 154.3212
144.593260 91.877 154.4545
145.641043 91.901 154.5930
146.696418 91.906 154.7177
147.759441 91.891 154.7851
148.830166 91.859 154.6961
149.908651 91.808 154.5376
150.994951 91.751 154.5043
152.089123 91.706 154.5753
153.191223 91.675 154.6292
154.301310 91.654 154.6375
155.419441 91.641 154.6072
156.545674 91.630 154.5427
157.680069 91.617 154.4511
158.822683 91.600 154.3348
159.973578 91.577 154.2193
161.132813 91.549 154.1369
162.300447 91.517 154.0995
163.476543 91.482 154.0941
164.661162 91.444 154.0890
165.854364 91.405 154.0673
167.056213 91.364 154.0338
168.266772 91.322 153.9970
169.486102 91.283 153.9559
170.714268 91.249 153.9049
171.951334 91.217 153.8397
173.197364 91.185 153.7662
174.452424 91.150 153.7013
175.716578 91.108 153.6510
176.989893 91.061 153.6083
178.272434 91.012 153.5753
179.564270 90.970 153.5443
180.865467 90.940 153.5004
182.176092 90.917 153.4317
183.496216 90.895 153.3315
184.825905 90.866 153.2134
186.165229 90.826 153.1359
187.514259 90.775 153.1657
188.873065 90.716 153.3156
190.241717 90.656 153.5139
191.620287 90.604 153.6528
193.008847 90.566 153.7102
194.407468 90.535 153.7545
195.816225 90.501 153.8290
197.235190 90.463 153.9145
198.664438 90.421 153.9937
200.104042 90.377 154.0645
201.554078 90.336 154.1115
203.014622 90.298 154.1164
204.485750 90.263 154.1133
205.967538 90.225 154.1492
207.460064 90.183 154.2095
208.963405 90.137 154.2722
210.477640 90.090 154.3581
212.002848 90.044 154.4945
213.539108 90.003 154.6511
215.086500 89.968 154.7906
216.645105 89.936 154.9224
218.215005 89.906 155.0637
219.796281 89.877 155.2077
221.389015 89.848 155.3398
222.993292 89.820 155.4501
224.609193 89.796 155.5369
226.236804 89.776 155.6090
227.876209 89.759 155.6937
229.527494 89.740 155.7944
231.190745 89.714 155.8773
232.866048 89.683 155.9287
234.553491 89.650 155.9601
236.253163 89.620 155.9761
237.965150 89.590 155.9816
239.689544 89.562 156.0036
241.426433 89.535 156.0709
243.175909 89.504 156.1754
244.938062 89.468 156.2889
246.712984 89.429 156.3860
248.500768 89.390 156.4415
250.301507 89.353 156.4761
252.115295 89.316 156.5349
253.942226 89.277 156.6297
255.782396 89.241 156.7423
257.635901 89.206 156.8461
259.502837 89.172 156.9359
261.383301 89.137 157.0344
263.277392 89.100 157.1483
265.185209 89.063 157.2561
267.106850 89.025 157.3524
269.042417 88.986 157.4456
270.992009 88.950 157.5410
272.955729 88.916 157.6502
274.933678 88.885 157.7841
276.925961 88.854 157.9243
278.932681 88.819 158.0583
280.953942 88.785 158.1795
282.989850 88.752 158.3029
285.040511 88.722 158.4395
287.106032 88.693 158.5822
289.186521 88.662 158.7757
291.282086 88.624 159.0702
293.392836 88.585 159.3838
295.518881 88.549 159.5754
297.660333 88.516 159.6055
299.817302 88.486 159.5325
301.989902 88.457 159.5503
304.178245 88.419 159.6809
306.382446 88.376 159.8154
308.602620 88.338 159.9685
310.838882 88.305 160.1769
313.091348 88.274 160.3811
315.360137 88.243 160.5500
317.645367 88.213 160.7001
319.947156 88.184 160.8348
322.265625 88.156 160.9657
324.600895 88.125 161.1040
326.953086 88.090 161.2701
329.322323 88.053 161.4644
331.708729 88.016 161.6584
334.112427 87.982 161.8335
336.533543 87.952 161.9935
338.972204 87.925 162.1476
341.428536 87.899 162.3122
343.902668 87.870 162.5010
346.394729 87.838 162.7089
348.904848 87.805 162.9177
351.433156 87.773 163.1105
353.979786 87.742 163.2866
356.544869 87.712 163.4630
359.128540 87.681 163.6466
361.730934 87.652 163.8381
364.352185 87.624 164.0417
366.992431 87.596 164.2491
369.651810 87.568 164.4529
372.330459 87.539 164.6646
375.028519 87.508 164.8982
377.746130 87.476 165.1477
380.483434 87.446 165.3842
383.240574 87.418 165.5861
386.017693 87.392 165.7712
388.814937 87.366 165.9697
391.632450 87.337 166.1862
394.470380 87.307 166.4034
397.328875 87.277 166.6179
400.208084 87.248 166.8410
403.108157 87.219 167.0793
406.029245 87.190 167.3198
408.971500 87.163 167.5493
411.935076 87.139 167.7678
414.920127 87.117 167.9867
417.926810 87.097 168.2125
420.955280 87.075 168.4464
424.005695 87.051 168.6805
427.078215 87.024 168.9122
430.173000 86.999 169.1463
433.290211 86.974 169.3854
436.430010 86.949 169.6226
439.592562 86.923 169.8705
442.778031 86.898 170.1375
445.986583 86.873 170.4070
449.218386 86.849 170.6812
452.473607 86.825 170.9604
455.752418 86.802 171.2430
459.054987 86.780 171.5259
462.381489 86.758 171.8082
465.732096 86.736 172.0856
469.106983 86.714 172.3559
472.506325 86.692 172.6255
475.930301 86.671 172.8979
479.379088 86.649 173.1743
482.852867 86.628 173.4557
486.351817 86.607 173.7421
489.876123 86.589 174.0279
493.425968 86.571 174.3130
497.001536 86.552 174.5984
500.603014 86.531 174.8854
504.230589 86.511 175.1771
507.884452 86.491 175.4768
511.564792 86.473 175.7923
515.271802 86.456 176.1250
519.005673 86.440 176.4568
522.766602 86.423 176.7678
526.554785 86.408 177.0558
530.370418 86.394 177.3399
534.213700 86.380 177.6416
538.084833 86.366 177.9617
541.984018 86.351 178.2809
545.911457 86.338 178.5883
549.867357 86.326 178.8954
553.851922 86.314 179.2135
557.865362 86.300 179.5338
561.907884 86.286 179.8449
565.979700 86.271 -179.8563
570.081022 86.256 -179.5606
574.212064 86.241 -179.2571
578.373042 86.226 -178.9484
582.564171 86.213 -178.6291
586.785671 86.200 -178.2962
591.037762 86.188 -177.9627
595.320665 86.175 -177.6371
599.634604 86.162 -177.3191
603.979804 86.149 -177.0044
608.356491 86.136 -176.6817
612.764893 86.123 -176.3432
617.205240 86.111 -175.9921
621.677763 86.100 -175.6390
626.182696 86.088 -175.2849
630.720274 86.077 -174.9256
635.290733 86.066 -174.5622
639.894312 86.056 -174.1970
644.531250 86.047 -173.8300
649.201789 86.039 -173.4615
653.906173 86.032 -173.0866
658.644647 86.024 -172.7037
663.417457 86.016 -172.3139
668.224854 86.008 -171.9194
673.067086 86.001 -171.5251
677.944408 85.995 -171.1311
682.857073 85.989 -170.7342
687.805336 85.983 -170.3371
692.789457 85.978 -169.9427
697.809695 85.974 -169.5478
702.866312 85.971 -169.1488
707.959571 85.969 -168.7412
713.089738 85.967 -168.3217
718.257080 85.965 -167.8915
723.461867 85.964 -167.4572
728.704370 85.964 -167.0258
733.984862 85.964 -166.5979
739.303619 85.965 -166.1699
744.660918 85.967 -165.7388
750.057038 85.970 -165.3046
755.492260 85.974 -164.8669
760.966869 85.980 -164.4268
766.481148 85.987 -163.9851
772.035387 85.994 -163.5365
777.629873 86.003 -163.0771
783.264900 86.012 -162.6101
788.940760 86.022 -162.1421
794.657750 86.033 -161.6759
800.416168 86.045 -161.2087
806.216313 86.058 -160.7384
812.058489 86.073 -160.2635
817.943000 86.089 -159.7891
823.870152 86.105 -159.3207
829.840255 86.121 -158.8518
835.853619 86.139 -158.3755
841.910559 86.159 -157.8924
848.011390 86.181 -157.4059
854.156430 86.205 -156.9194
860.346000 86.230 -156.4357
866.580422 86.257 -155.9558
872.860020 86.284 -155.4775
879.185124 86.313 -154.9970
885.556062 86.342 -154.5143
891.973166 86.373 -154.0321
898.436771 86.406 -153.5519
904.947215 86.440 -153.0708
911.504835 86.477 -152.5899
918.109975 86.514 -152.1149
924.762978 86.554 -151.6459
931.464192 86.595 -151.1810
938.213966 86.638 -150.7179
945.012651 86.682 -150.2549
951.860602 86.727 -149.7947
958.758176 86.773 -149.3388
965.705733 86.819 -148.8868
972.703635 86.868 -148.4393
979.752246 86.918 -148.0013
986.851935 86.969 -147.5753
994.003071 87.023 -147.1587
1001.206027 87.078 -146.7487
1008.461179 87.134 -146.3438
1015.768904 87.192 -145.9450
1023.129584 87.250 -145.5529
1030.543603 87.309 -145.1682
1038.011347 87.369 -144.7893
1045.533205 87.430 -144.4165
1053.109569 87.492 -144.0552
1060.740836 87.555 -143.7085
1068.427401 87.619 -143.3748
1076.169666 87.683 -143.0479
1083.968035 87.748 -142.7234
1091.822915 87.814 -142.4020
1099.734713 87.880 -142.0886
1107.703844 87.946 -141.7887
1115.730723 88.012 -141.5042
1123.815768 88.078 -141.2330
1131.959400 88.145 -140.9726
1140.162045 88.212 -140.7205
1148.424129 88.279 -140.4742
1156.746083 88.347 -140.2343
1165.128342 88.414 -140.0015
1173.571343 88.482 -139.7751
1182.075524 88.551 -139.5582
1190.641331 88.618 -139.3547
1199.269209 88.685 -139.1631
1207.959608 88.750 -138.9783
1216.712981 88.816 -138.7969
1225.529785 88.882 -138.6199
1234.410479 88.948 -138.4497
1243.355526 89.014 -138.2879
1252.365393 89.079 -138.1342
1261.440549 89.143 -137.9877
1270.581467 89.207 -137.8456
1279.788624 89.270 -137.7061
1289.062500 89.332 -137.5702
1298.403578 89.394 -137.4396
1307.812346 89.456 -137.3150
1317.289293 89.518 -137.1967
1326.834914 89.579 -137.0852
1336.449707 89.640 -136.9792
1346.134173 89.701 -136.8757
1355.888816 89.760 -136.7715
1365.714145 89.819 -136.6646
1375.610673 89.877 -136.5555
1385.578915 89.933 -136.4463
1395.619391 89.989 -136.3393
1405.732624 90.045 -136.2357
1415.919142 90.101 -136.1355
1426.179476 90.157 -136.0372
1436.514160 90.214 -135.9383
1446.923734 90.269 -135.8372
1457.408740 90.324 -135.7334
1467.969724 90.379 -135.6264
1478.607238 90.434 -135.5162
1489.321836 90.488 -135.4043
1500.114076 90.543 -135.2921
1510.984521 90.597 -135.1800
1521.933737 90.653 -135.0680
1532.962297 90.708 -134.9565
1544.070773 90.764 -134.8439
1555.259747 90.820 -134.7290
1566.529800 90.876 -134.6109
1577.881521 90.931 -134.4872
1589.315501 90.988 -134.3587
1600.832336 91.047 -134.2319
1612.432627 91.108 -134.1125
1624.116978 91.170 -134.0015
1635.886000 91.233 -133.8941
1647.740304 91.296 -133.7827
1659.680509 91.360 -133.6642
1671.707238 91.423 -133.5403
1683.821118 91.485 -133.4169
1696.022780 91.547 -133.2981
1708.312860 91.608 -133.1818
1720.692000 91.671 -133.0651
1733.160843 91.734 -132.9493
1745.720041 91.799 -132.8359
1758.370248 91.865 -132.7258
1771.112124 91.932 -132.6194
1783.946332 92.000 -132.5170
1796.873543 92.069 -132.4173
1809.894429 92.139 -132.3191
1823.009670 92.209 -132.2229
1836.219950 92.280 -132.1294
1849.525956 92.351 -132.0398
1862.928384 92.424 -131.9566
1876.427931 92.498 -131.8813
1890.025301 92.574 -131.8135
1903.721204 92.650 -131.7519
1917.516352 92.728 -131.6946
1931.411466 92.806 -131.6412
1945.407270 92.884 -131.5923
1959.504493 92.963 -131.5489
1973.703870 93.043 -131.5132
1988.006142 93.124 -131.4866
2002.412054 93.206 -131.4694
2016.922357 93.289 -131.4617
2031.537808 93.374 -131.4635
2046.259169 93.460 -131.4746
2061.087206 93.546 -131.4941
2076.022694 93.633 -131.5228
2091.066410 93.721 -131.5608
2106.219139 93.809 -131.6086
2121.481671 93.897 -131.6672
2136.854802 93.986 -131.7379
2152.339333 94.076 -131.8213
2167.936071 94.167 -131.9179
2183.645829 94.258 -132.0285
2199.469427 94.351 -132.1537
2215.407689 94.443 -132.2926
2231.461446 94.537 -132.4441
2247.631536 94.629 -132.6080
2263.918800 94.722 -132.7856
2280.324089 94.815 -132.9783
2296.848258 94.908 -133.1871
2313.492167 95.001 -133.4125
2330.256685 95.094 -133.6551
2347.142685 95.188 -133.9161
2364.151049 95.281 -134.1951
2381.282662 95.374 -134.4909
2398.538418 95.466 -134.8027
2415.919216 95.557 -135.1310
2433.425962 95.647 -135.4768
2451.059570 95.736 -135.8409
2468.820958 95.825 -136.2236
2486.711052 95.912 -136.6250
2504.730786 95.999 -137.0453
2522.881098 96.084 -137.4846
2541.162934 96.168 -137.9424
2559.577248 96.250 -138.4176
2578.125000 96.330 -138.9097
2596.807157 96.407 -139.4184
2615.624692 96.482 -139.9433
2634.578586 96.555 -140.4842
2653.669829 96.625 -141.0418
2672.899414 96.692 -141.6163
2692.268345 96.757 -142.2068
2711.777632 96.820 -142.8116
2731.428290 96.880 -143.4294
2751.221345 96.936 -144.0583
2771.157829 96.988 -144.6969
2791.238781 97.037 -145.3439
2811.465248 97.081 -145.9984
2831.838284 97.121 -146.6599
2852.358952 97.158 -147.3274
2873.028321 97.191 -147.9994
2893.847468 97.220 -148.6739
2914.817480 97.245 -149.3481
2935.939449 97.267 -150.0189
2957.214476 97.284 -150.6832
2978.643672 97.296 -151.3372
3000.228152 97.303 -151.9778
3021.969041 97.307 -152.6023
3043.867475 97.307 -153.2077
3065.924593 97.305 -153.7897
3088.141547 97.302 -154.3453
3110.519493 97.298 -154.8734
3133.059600 97.296 -155.3746
3155.763041 97.295 -155.8515
3178.631001 97.297 -156.3098
3201.664672 97.304 -156.7626
3224.865254 97.315 -157.2279
3248.233957 97.330 -157.7218
3271.771999 97.346 -158.2554
3295.480608 97.362 -158.8304
3319.361019 97.375 -159.4415
3343.414477 97.384 -160.0837
3367.642236 97.386 -160.7493
3392.045560 97.381 -161.4256
3416.625721 97.370 -162.1006
