* Measurement data measured by REW V5.31.3
* Source: Headset (2- CX31993 HIFI AUDIO), MICROPHONE (Master Volume), R, volume: 0.400
* Format: 256k Log Swept Sine, 1 sweep at -12.0 dBFS with no timing reference
* Dated: 10 9, 24 10:56:39 AM
* REW Settings:
*  C-weighting compensation: Off
*  Target level: 75.0 dB
* Note: ; 
* Measurement: Moondrop Kadenz L
* Smoothing: 1/12 octave
* Frequency Step: 96 ppo
* Start Frequency: 0.36621094 Hz
*
* Freq(Hz) SPL(dB) Phase(degrees)
0.366211 51.686 9.8768
0.368865 51.705 9.9284
0.371538 51.732 10.0052
0.374230 51.767 10.1007
0.376942 51.805 10.2094
0.379673 51.846 10.3272
0.382424 51.889 10.4516
0.385196 51.934 10.5809
0.387987 51.978 10.7141
0.390798 52.024 10.8507
0.393630 52.070 10.9905
0.396483 52.116 11.1332
0.399356 52.163 11.2789
0.402250 52.210 11.4274
0.405165 52.257 11.5787
0.408101 52.305 11.7328
0.411058 52.353 11.8897
0.414037 52.401 12.0494
0.417037 52.450 12.2117
0.420059 52.499 12.3769
0.423103 52.548 12.5447
0.426169 52.598 12.7152
0.429257 52.648 12.8883
0.432368 52.699 13.0640
0.435501 52.750 13.2423
0.438656 52.801 13.4231
0.441835 52.853 13.6065
0.445037 52.905 13.7922
0.448262 52.957 13.9804
0.451510 53.010 14.1709
0.454782 53.063 14.3637
0.458077 53.116 14.5588
0.461397 53.170 14.7560
0.464740 53.225 14.9553
0.468108 53.279 15.1567
0.471500 53.334 15.3600
0.474917 53.390 15.5652
0.478358 53.446 15.7722
0.481825 53.502 15.9810
0.485316 53.559 16.1913
0.488833 53.616 16.4032
0.492375 53.673 16.6166
0.495943 53.731 16.8313
0.499537 53.790 17.0472
0.503157 53.848 17.2642
0.506803 53.908 17.4823
0.510475 53.967 17.7012
0.514175 54.027 17.9210
0.517900 54.088 18.1413
0.521653 54.149 18.3622
0.525434 54.210 18.5834
0.529241 54.272 18.8049
0.533076 54.334 19.0265
0.536939 54.397 19.2480
0.540830 54.460 19.4693
0.544749 54.524 19.6903
0.548696 54.588 19.9108
0.552673 54.653 20.1306
0.556677 54.718 20.3496
0.560711 54.783 20.5676
0.564774 54.849 20.7845
0.568867 54.916 21.0000
0.572989 54.983 21.2140
0.577141 55.050 21.4264
0.581324 55.118 21.6369
0.585536 55.187 21.8454
0.589779 55.256 22.0517
0.594053 55.325 22.2556
0.598358 55.395 22.4570
0.602694 55.465 22.6556
0.607061 55.536 22.8514
0.611460 55.608 23.0440
0.615891 55.680 23.2334
0.620354 55.752 23.4193
0.624849 55.825 23.6016
0.629377 55.899 23.7802
0.633938 55.973 23.9547
0.638532 56.048 24.1252
0.643159 56.123 24.2913
0.647819 56.198 24.4529
0.652514 56.275 24.6099
0.657242 56.352 24.7622
0.662005 56.429 24.9095
0.666802 56.507 25.0517
0.671634 56.585 25.1886
0.676501 56.664 25.3202
0.681403 56.744 25.4463
0.686341 56.824 25.5667
0.691314 56.905 25.6814
0.696324 56.987 25.7903
0.701370 57.069 25.8934
0.706452 57.152 25.9906
0.711571 57.236 26.0821
0.716728 57.322 26.1683
0.721921 57.409 26.2497
0.727153 57.498 26.3271
0.732422 57.589 26.4017
0.737729 57.684 26.4749
0.743075 57.781 26.5479
0.748460 57.881 26.6219
0.753883 57.983 26.6972
0.759346 58.087 26.7743
0.764849 58.193 26.8531
0.770391 58.301 26.9335
0.775974 58.410 27.0151
0.781597 58.521 27.0977
0.787261 58.634 27.1809
0.792966 58.748 27.2644
0.798712 58.864 27.3478
0.804500 58.981 27.4307
0.810329 59.100 27.5127
0.816201 59.221 27.5935
0.822116 59.343 27.6728
0.828073 59.466 27.7502
0.834074 59.591 27.8253
0.840118 59.718 27.8979
0.846206 59.846 27.9675
0.852338 59.975 28.0340
0.858514 60.105 28.0968
0.864735 60.237 28.1559
0.871001 60.371 28.2108
0.877313 60.505 28.2613
0.883670 60.641 28.3071
0.890074 60.778 28.3478
0.896524 60.916 28.3833
0.903020 61.056 28.4133
0.909564 61.196 28.4374
0.916155 61.337 28.4556
0.922794 61.480 28.4674
0.929481 61.623 28.4727
0.936216 61.768 28.4712
0.943000 61.913 28.4627
0.949834 62.059 28.4471
0.956717 62.206 28.4240
0.963649 62.353 28.3933
0.970632 62.501 28.3548
0.977666 62.650 28.3082
0.984750 62.799 28.2534
0.991886 62.948 28.1903
0.999074 63.098 28.1186
1.006314 63.248 28.0381
1.013606 63.398 27.9487
1.020951 63.548 27.8503
1.028349 63.699 27.7427
1.035801 63.849 27.6258
1.043307 63.999 27.4994
1.050867 64.148 27.3636
1.058482 64.298 27.2183
1.066152 64.447 27.0637
1.073878 64.595 26.9001
1.081660 64.743 26.7282
1.089498 64.891 26.5487
1.097393 65.038 26.3631
1.105345 65.185 26.1730
1.113355 65.332 25.9798
1.121423 65.479 25.7849
1.129549 65.626 25.5893
1.137734 65.773 25.3932
1.145979 65.921 25.1971
1.154283 66.069 25.0008
1.162647 66.217 24.8043
1.171072 66.365 24.6073
1.179558 66.513 24.4096
1.188106 66.662 24.2110
1.196715 66.811 24.0112
1.205387 66.961 23.8099
1.214122 67.110 23.6069
1.222920 67.260 23.4019
1.231782 67.410 23.1946
1.240708 67.560 22.9848
1.249699 67.710 22.7722
1.258754 67.861 22.5566
1.267876 68.011 22.3377
1.277063 68.162 22.1152
1.286318 68.313 21.8889
1.295639 68.464 21.6586
1.305027 68.616 21.4239
1.314484 68.767 21.1847
1.324009 68.919 20.9407
1.333604 69.070 20.6916
1.343268 69.222 20.4373
1.353002 69.374 20.1773
1.362806 69.526 19.9116
1.372681 69.678 19.6399
1.382628 69.830 19.3619
1.392647 69.982 19.0774
1.402739 70.134 18.7863
1.412904 70.287 18.4885
1.423142 70.439 18.1838
1.433455 70.591 17.8725
1.443843 70.743 17.5549
1.454305 70.895 17.2317
1.464844 71.047 16.9037
1.475459 71.199 16.5722
1.486150 71.350 16.2382
1.496920 71.502 15.9027
1.507767 71.652 15.5662
1.518693 71.803 15.2291
1.529698 71.953 14.8914
1.540783 72.103 14.5530
1.551948 72.252 14.2137
1.563194 72.402 13.8733
1.574521 72.550 13.5316
1.585931 72.699 13.1882
1.597423 72.847 12.8428
1.608999 72.995 12.4952
1.620658 73.142 12.1450
1.632402 73.290 11.7920
1.644232 73.437 11.4357
1.656146 73.584 11.0760
1.668147 73.730 10.7123
1.680235 73.876 10.3445
1.692411 74.023 9.9722
1.704675 74.169 9.5951
1.717028 74.314 9.2128
1.729470 74.460 8.8250
1.742003 74.606 8.4314
1.754626 74.751 8.0317
1.767341 74.897 7.6255
1.780147 75.042 7.2128
1.793047 75.187 6.7934
1.806040 75.332 6.3672
1.819128 75.477 5.9345
1.832310 75.622 5.4958
1.845587 75.766 5.0517
1.858961 75.910 4.6028
1.872432 76.054 4.1498
1.886001 76.197 3.6933
1.899667 76.339 3.2337
1.913433 76.481 2.7713
1.927299 76.622 2.3063
1.941265 76.762 1.8389
1.955332 76.902 1.3693
1.969501 77.042 0.8975
1.983773 77.180 0.4236
1.998148 77.319 -0.0523
2.012627 77.457 -0.5304
2.027212 77.594 -1.0106
2.041902 77.731 -1.4929
2.056698 77.868 -1.9775
2.071602 78.004 -2.4645
2.086614 78.140 -2.9539
2.101734 78.275 -3.4460
2.116964 78.410 -3.9409
2.132304 78.545 -4.4389
2.147756 78.680 -4.9401
2.163320 78.814 -5.4448
2.178996 78.949 -5.9531
2.194786 79.082 -6.4654
2.210690 79.215 -6.9817
2.226710 79.348 -7.5019
2.242845 79.480 -8.0260
2.259098 79.611 -8.5537
2.275468 79.742 -9.0847
2.291957 79.871 -9.6187
2.308566 80.000 -10.1554
2.325295 80.129 -10.6944
2.342145 80.256 -11.2354
2.359117 80.383 -11.7782
2.376212 80.509 -12.3226
2.393431 80.635 -12.8683
2.410775 80.760 -13.4151
2.428244 80.885 -13.9630
2.445840 81.009 -14.5118
2.463564 81.132 -15.0615
2.481416 81.255 -15.6122
2.499397 81.378 -16.1638
2.517509 81.500 -16.7167
2.535752 81.622 -17.2710
2.554127 81.744 -17.8273
2.572635 81.864 -18.3860
2.591277 81.984 -18.9475
2.610055 82.104 -19.5121
2.628968 82.222 -20.0798
2.648019 82.340 -20.6505
2.667208 82.457 -21.2240
2.686535 82.573 -21.7997
2.706003 82.688 -22.3774
2.725612 82.803 -22.9566
2.745363 82.916 -23.5367
2.765257 83.029 -24.1176
2.785295 83.142 -24.6987
2.805478 83.254 -25.2798
2.825808 83.365 -25.8606
2.846285 83.476 -26.4410
2.866910 83.586 -27.0208
2.887685 83.696 -27.6003
2.908611 83.805 -28.1797
2.929688 83.914 -28.7596
2.950917 84.022 -29.3404
2.972301 84.129 -29.9229
2.993839 84.236 -30.5072
3.015534 84.341 -31.0934
3.037386 84.446 -31.6815
3.059396 84.550 -32.2710
3.081565 84.654 -32.8616
3.103896 84.756 -33.4528
3.126388 84.858 -34.0441
3.149043 84.959 -34.6351
3.171862 85.060 -35.2255
3.194847 85.160 -35.8148
3.217998 85.259 -36.4028
3.241317 85.358 -36.9894
3.264805 85.457 -37.5748
3.288463 85.555 -38.1592
3.312293 85.652 -38.7432
3.336295 85.749 -39.3273
3.360471 85.845 -39.9119
3.384822 85.940 -40.4973
3.409350 86.035 -41.0833
3.434056 86.129 -41.6698
3.458940 86.222 -42.2565
3.484005 86.314 -42.8429
3.509252 86.406 -43.4288
3.534681 86.497 -44.0138
3.560295 86.588 -44.5975
3.586094 86.679 -45.1797
3.612081 86.769 -45.7604
3.638255 86.858 -46.3397
3.664620 86.947 -46.9177
3.691175 87.036 -47.4950
3.717923 87.123 -48.0720
3.744864 87.211 -48.6489
3.772001 87.297 -49.2257
3.799335 87.383 -49.8025
3.826866 87.469 -50.3790
3.854597 87.554 -50.9549
3.882529 87.638 -51.5301
3.910664 87.722 -52.1043
3.939002 87.805 -52.6772
3.967546 87.888 -53.2487
3.996296 87.971 -53.8190
4.025255 88.053 -54.3881
4.054423 88.135 -54.9563
4.083804 88.216 -55.5239
4.113396 88.297 -56.0912
4.143204 88.377 -56.6582
4.173227 88.456 -57.2250
4.203468 88.536 -57.7912
4.233928 88.614 -58.3569
4.264609 88.692 -58.9217
4.295512 88.770 -59.4856
4.326639 88.847 -60.0484
4.357992 88.924 -60.6101
4.389572 89.001 -61.1710
4.421380 89.077 -61.7312
4.453419 89.152 -62.2909
4.485691 89.227 -62.8503
4.518196 89.302 -63.4095
4.550936 89.375 -63.9684
4.583914 89.449 -64.5267
4.617131 89.522 -65.0844
4.650589 89.595 -65.6411
4.684289 89.667 -66.1969
4.718233 89.738 -66.7516
4.752424 89.809 -67.3054
4.786862 89.880 -67.8585
4.821549 89.950 -68.4110
4.856488 90.020 -68.9630
4.891680 90.089 -69.5146
4.927127 90.158 -70.0658
4.962831 90.226 -70.6162
4.998794 90.294 -71.1657
5.035017 90.361 -71.7142
5.071503 90.428 -72.2616
5.108253 90.494 -72.8078
5.145270 90.560 -73.3530
5.182555 90.626 -73.8974
5.220110 90.690 -74.4410
5.257937 90.755 -74.9839
5.296038 90.819 -75.5261
5.334415 90.882 -76.0675
5.373071 90.945 -76.6079
5.412006 91.008 -77.1471
5.451224 91.070 -77.6852
5.490725 91.132 -78.2221
5.530514 91.193 -78.7580
5.570590 91.254 -79.2929
5.610957 91.314 -79.8271
5.651616 91.374 -80.3605
5.692570 91.434 -80.8930
5.733821 91.493 -81.4247
5.775370 91.551 -81.9554
5.817221 91.609 -82.4852
5.859375 91.667 -83.0141
5.901834 91.725 -83.5423
5.944602 91.782 -84.0697
5.987679 91.838 -84.5965
6.031068 91.894 -85.1226
6.074771 91.950 -85.6481
6.118792 92.005 -86.1728
6.163131 92.059 -86.6968
6.207792 92.114 -87.2200
6.252776 92.167 -87.7426
6.298086 92.221 -88.2647
6.343725 92.273 -88.7861
6.389694 92.325 -89.3069
6.435996 92.377 -89.8269
6.482634 92.428 -90.3459
6.529610 92.479 -90.8638
6.576926 92.529 -91.3806
6.624585 92.578 -91.8961
6.672590 92.627 -92.4105
6.720942 92.675 -92.9237
6.769645 92.722 -93.4354
6.818700 92.769 -93.9454
6.868111 92.816 -94.4532
6.917881 92.861 -94.9588
6.968010 92.906 -95.4619
7.018504 92.951 -95.9624
7.069362 92.995 -96.4604
7.120590 93.038 -96.9556
7.172189 93.081 -97.4479
7.224161 93.124 -97.9369
7.276511 93.166 -98.4223
7.329239 93.207 -98.9041
7.382350 93.248 -99.3821
7.435845 93.289 -99.8564
7.489729 93.330 -100.3271
7.544002 93.371 -100.7943
7.598669 93.411 -101.2579
7.653732 93.451 -101.7182
7.709194 93.492 -102.1752
7.765058 93.532 -102.6290
7.821327 93.573 -103.0800
7.878004 93.613 -103.5286
7.935091 93.654 -103.9755
7.992592 93.696 -104.4213
8.050510 93.737 -104.8663
8.108847 93.779 -105.3111
8.167607 93.821 -105.7561
8.226793 93.863 -106.2019
8.286408 93.906 -106.6493
8.346454 93.949 -107.0992
8.406936 93.992 -107.5521
8.467856 94.035 -108.0088
8.529218 94.078 -108.4695
8.591024 94.121 -108.9346
8.653278 94.164 -109.4045
8.715983 94.207 -109.8795
8.779143 94.248 -110.3601
8.842760 94.290 -110.8462
8.906839 94.330 -111.3379
8.971381 94.370 -111.8347
9.036392 94.408 -112.3361
9.101873 94.445 -112.8416
9.167829 94.481 -113.3506
9.234263 94.515 -113.8625
9.301178 94.547 -114.3764
9.368578 94.578 -114.8910
9.436467 94.607 -115.4051
9.504847 94.634 -115.9172
9.573723 94.659 -116.4261
9.643099 94.683 -116.9307
9.712976 94.704 -117.4297
9.783361 94.724 -117.9217
9.854255 94.743 -118.4051
9.925663 94.760 -118.8787
9.997588 94.775 -119.3417
10.070035 94.790 -119.7934
10.143007 94.804 -120.2332
10.216507 94.818 -120.6606
10.290540 94.831 -121.0753
10.365109 94.845 -121.4775
10.440219 94.859 -121.8677
10.515873 94.873 -122.2469
10.592076 94.888 -122.6162
10.668830 94.905 -122.9767
10.746141 94.922 -123.3299
10.824012 94.941 -123.6774
10.902447 94.962 -124.0213
10.981451 94.983 -124.3637
11.061027 95.007 -124.7064
11.141180 95.031 -125.0509
11.221913 95.057 -125.3990
11.303232 95.083 -125.7523
11.385140 95.110 -126.1120
11.467641 95.138 -126.4789
11.550741 95.166 -126.8534
11.634442 95.193 -127.2356
11.718750 95.220 -127.6251
11.803669 95.246 -128.0213
11.889203 95.271 -128.4234
11.975357 95.295 -128.8297
12.062136 95.317 -129.2385
12.149543 95.338 -129.6482
12.237583 95.357 -130.0570
12.326262 95.375 -130.4629
12.415583 95.391 -130.8640
12.505552 95.406 -131.2586
12.596172 95.420 -131.6454
12.687449 95.434 -132.0233
12.779387 95.447 -132.3918
12.871992 95.460 -132.7504
12.965268 95.473 -133.0995
13.059220 95.487 -133.4400
13.153852 95.502 -133.7730
13.249170 95.518 -134.1002
13.345179 95.535 -134.4234
13.441884 95.554 -134.7449
13.539289 95.574 -135.0671
13.637401 95.596 -135.3923
13.736223 95.619 -135.7226
13.835761 95.642 -136.0601
13.936021 95.667 -136.4062
14.037007 95.692 -136.7623
14.138725 95.716 -137.1288
14.241180 95.741 -137.5059
14.344377 95.764 -137.8932
14.448323 95.787 -138.2898
14.553021 95.807 -138.6943
14.658478 95.827 -139.1047
14.764700 95.844 -139.5191
14.871691 95.859 -139.9353
14.979457 95.872 -140.3508
15.088005 95.883 -140.7634
15.197339 95.892 -141.1709
15.307465 95.900 -141.5714
15.418389 95.906 -141.9633
15.530117 95.911 -142.3454
15.642655 95.916 -142.7170
15.756008 95.920 -143.0777
15.870182 95.923 -143.4276
15.985184 95.927 -143.7673
16.101019 95.931 -144.0977
16.217694 95.936 -144.4199
16.335214 95.942 -144.7354
16.453586 95.948 -145.0458
16.572815 95.956 -145.3528
16.692909 95.964 -145.6579
16.813872 95.973 -145.9627
16.935713 95.983 -146.2687
17.058436 95.994 -146.5770
17.182048 96.005 -146.8884
17.306556 96.016 -147.2034
17.431967 96.027 -147.5224
17.558286 96.038 -147.8451
17.685521 96.049 -148.1711
17.813677 96.059 -148.4995
17.942762 96.068 -148.8292
18.072783 96.077 -149.1591
18.203746 96.085 -149.4878
18.335658 96.092 -149.8140
18.468526 96.098 -150.1367
18.602356 96.104 -150.4550
18.737156 96.110 -150.7686
18.872934 96.116 -151.0775
19.009695 96.122 -151.3823
19.147447 96.129 -151.6840
19.286197 96.136 -151.9841
19.425953 96.143 -152.2841
19.566721 96.152 -152.5857
19.708510 96.160 -152.8903
19.851326 96.168 -153.1991
19.995177 96.177 -153.5121
20.140070 96.184 -153.8289
20.286013 96.190 -154.1482
20.433014 96.195 -154.4678
20.581080 96.198 -154.7846
20.730219 96.200 -155.0957
20.880439 96.200 -155.3976
21.031747 96.200 -155.6877
21.184152 96.199 -155.9638
21.337661 96.198 -156.2252
21.492282 96.198 -156.4724
21.648024 96.200 -156.7076
21.804895 96.204 -156.9341
21.962902 96.210 -157.1564
22.122054 96.218 -157.3795
22.282360 96.229 -157.6081
22.443827 96.241 -157.8464
22.606464 96.254 -158.0973
22.770280 96.267 -158.3619
22.935283 96.280 -158.6398
23.101481 96.291 -158.9286
23.268884 96.300 -159.2249
23.437500 96.307 -159.5243
23.607338 96.312 -159.8223
23.778406 96.314 -160.1149
23.950714 96.315 -160.3992
24.124271 96.316 -160.6736
24.299086 96.315 -160.9382
24.475167 96.315 -161.1945
24.652524 96.315 -161.4449
24.831166 96.316 -161.6921
25.011103 96.317 -161.9388
25.192344 96.318 -162.1867
25.374898 96.318 -162.4363
25.558775 96.318 -162.6870
25.743984 96.317 -162.9369
25.930536 96.315 -163.1835
26.118439 96.311 -163.4243
26.307704 96.308 -163.6573
26.498341 96.304 -163.8819
26.690359 96.301 -164.0990
26.883768 96.299 -164.3112
27.078579 96.299 -164.5224
27.274801 96.300 -164.7370
27.472446 96.303 -164.9596
27.671522 96.306 -165.1938
27.872042 96.310 -165.4414
28.074014 96.313 -165.7027
28.277450 96.315 -165.9755
28.482360 96.315 -166.2565
28.688755 96.314 -166.5411
28.896645 96.310 -166.8250
29.106042 96.305 -167.1042
29.316957 96.299 -167.3765
29.529400 96.292 -167.6410
29.743382 96.286 -167.8988
29.958915 96.281 -168.1519
30.176009 96.276 -168.4034
30.394677 96.273 -168.6561
30.614929 96.269 -168.9120
30.836778 96.266 -169.1721
31.060234 96.263 -169.4358
31.285309 96.259 -169.7014
31.512015 96.254 -169.9664
31.740364 96.248 -170.2277
31.970368 96.241 -170.4828
32.202039 96.234 -170.7298
32.435388 96.227 -170.9681
32.670428 96.221 -171.1983
32.907171 96.215 -171.4222
33.145630 96.210 -171.6427
33.385817 96.206 -171.8626
33.627745 96.203 -172.0844
33.871425 96.200 -172.3098
34.116871 96.196 -172.5385
34.364096 96.192 -172.7689
34.613113 96.187 -172.9982
34.863934 96.180 -173.2232
35.116572 96.173 -173.4412
35.371041 96.165 -173.6513
35.627354 96.159 -173.8546
35.885525 96.153 -174.0545
36.145566 96.148 -174.2555
36.407492 96.144 -174.4622
36.671316 96.140 -174.6776
36.937051 96.135 -174.9021
37.204712 96.130 -175.1335
37.474313 96.122 -175.3676
37.745867 96.114 -175.5999
38.019389 96.104 -175.8269
38.294893 96.094 -176.0476
38.572394 96.084 -176.2634
38.851905 96.075 -176.4773
39.133442 96.066 -176.6926
39.417019 96.057 -176.9113
39.702651 96.048 -177.1327
39.990353 96.038 -177.3544
40.280140 96.027 -177.5728
40.572026 96.016 -177.7845
40.866028 96.005 -177.9883
41.162160 95.994 -178.1850
41.460438 95.985 -178.3772
41.760877 95.976 -178.5685
42.063494 95.969 -178.7619
42.368303 95.961 -178.9589
42.675322 95.953 -179.1590
42.984565 95.945 -179.3603
43.296048 95.936 -179.5605
43.609789 95.926 -179.7573
43.925804 95.916 -179.9498
44.244108 95.906 179.8615
44.564719 95.897 179.6742
44.887654 95.888 179.4851
45.212928 95.879 179.2911
45.540560 95.870 179.0905
45.870565 95.859 178.8840
46.202962 95.847 178.6751
46.537768 95.833 178.4694
46.875000 95.817 178.2725
47.214676 95.800 178.0881
47.556813 95.784 177.9162
47.901429 95.769 177.7527
48.248542 95.756 177.5906
48.598171 95.744 177.4233
48.950334 95.733 177.2465
49.305048 95.722 177.0598
49.662333 95.709 176.8669
50.022206 95.695 176.6728
50.384688 95.680 176.4813
50.749796 95.664 176.2938
51.117550 95.648 176.1091
51.487969 95.632 175.9250
51.861072 95.616 175.7409
52.236879 95.599 175.5580
52.615409 95.582 175.3792
52.996681 95.565 175.2067
53.380717 95.548 175.0400
53.767536 95.532 174.8759
54.157158 95.517 174.7103
54.549603 95.503 174.5406
54.944892 95.489 174.3677
55.343045 95.474 174.1954
55.744084 95.460 174.0280
56.148028 95.445 173.8676
56.554900 95.431 173.7130
56.964720 95.419 173.5604
57.377510 95.407 173.4056
57.793291 95.395 173.2458
58.212085 95.383 173.0812
58.633914 95.370 172.9137
59.058799 95.356 172.7461
59.486764 95.340 172.5808
59.917829 95.324 172.4182
60.352019 95.306 172.2569
60.789354 95.288 172.0945
61.229859 95.269 171.9293
61.673556 95.248 171.7617
62.120468 95.225 171.5953
62.570618 95.201 171.4342
63.024031 95.177 171.2805
63.480729 95.153 171.1328
63.940736 95.131 170.9875
64.404077 95.108 170.8422
64.870776 95.087 170.6976
65.340856 95.066 170.5562
65.814343 95.046 170.4198
66.291261 95.028 170.2877
66.771635 95.011 170.1577
67.255489 94.996 170.0267
67.742850 94.982 169.8917
68.233743 94.968 169.7497
68.728193 94.954 169.6004
69.226226 94.938 169.4480
69.727867 94.919 169.2988
70.233144 94.899 169.1562
70.742083 94.878 169.0172
71.254709 94.855 168.8774
71.771050 94.829 168.7377
72.291132 94.801 168.6052
72.814984 94.771 168.4859
73.342631 94.741 168.3770
73.874102 94.712 168.2676
74.409424 94.683 168.1474
74.948626 94.653 168.0135
75.491734 94.621 167.8716
76.038779 94.588 167.7305
76.589787 94.553 167.5964
77.144788 94.519 167.4712
77.703811 94.486 167.3521
78.266885 94.455 167.2361
78.834039 94.426 167.1228
79.405303 94.399 167.0135
79.980706 94.375 166.9082
80.560280 94.352 166.8047
81.144053 94.332 166.7012
81.732056 94.313 166.5992
82.324320 94.294 166.5026
82.920876 94.274 166.4152
83.521755 94.255 166.3385
84.126988 94.234 166.2725
84.736607 94.213 166.2164
85.350643 94.190 166.1682
85.969129 94.167 166.1232
86.592097 94.143 166.0754
87.219579 94.117 166.0214
87.851608 94.091 165.9609
88.488217 94.065 165.8928
89.129439 94.039 165.8137
89.775308 94.013 165.7214
90.425856 93.988 165.6186
91.081119 93.964 165.5097
91.741131 93.940 165.3979
92.405925 93.916 165.2858
93.075536 93.891 165.1766
93.750000 93.866 165.0727
