* Measurement data measured by REW V5.31.3
* Source: Headset (CX31993 HIFI AUDIO), MICROPHONE (Master Volume), R, volume: 0.250
* Format: 256k Log Swept Sine, 1 sweep at -12.0 dBFS with no timing reference
* Dated: 03 3, 25 11:13:12 AM
* REW Settings:
*  C-weighting compensation: Off
*  Target level: 75.0 dB
* Note: ; 
* Measurement: Moondrop Aria nb 500 L
* Smoothing: 1/12 octave
* Frequency Step: 96 ppo
* Start Frequency: 0.36621094 Hz
*
* Freq(Hz) SPL(dB) Phase(degrees)
0.366211 20.813 127.3679
0.368865 20.853 127.2264
0.371538 20.912 127.0182
0.374230 20.984 126.7630
0.376942 21.065 126.4776
0.379673 21.153 126.1745
0.382424 21.243 125.8616
0.385196 21.336 125.5438
0.387987 21.431 125.2240
0.390798 21.526 124.9039
0.393630 21.623 124.5843
0.396483 21.720 124.2658
0.399356 21.818 123.9486
0.402250 21.917 123.6330
0.405165 22.016 123.3191
0.408101 22.116 123.0069
0.411058 22.217 122.6966
0.414037 22.319 122.3883
0.417037 22.421 122.0819
0.420059 22.525 121.7776
0.423103 22.629 121.4754
0.426169 22.733 121.1754
0.429257 22.839 120.8775
0.432368 22.945 120.5819
0.435501 23.052 120.2886
0.438656 23.160 119.9976
0.441835 23.268 119.7089
0.445037 23.377 119.4226
0.448262 23.488 119.1387
0.451510 23.598 118.8571
0.454782 23.710 118.5779
0.458077 23.823 118.3012
0.461397 23.936 118.0268
0.464740 24.050 117.7549
0.468108 24.165 117.4853
0.471500 24.281 117.2182
0.474917 24.398 116.9534
0.478358 24.515 116.6909
0.481825 24.634 116.4308
0.485316 24.753 116.1731
0.488833 24.873 115.9176
0.492375 24.994 115.6644
0.495943 25.116 115.4134
0.499537 25.238 115.1646
0.503157 25.362 114.9180
0.506803 25.487 114.6735
0.510475 25.612 114.4310
0.514175 25.738 114.1907
0.517900 25.866 113.9523
0.521653 25.994 113.7158
0.525434 26.123 113.4813
0.529241 26.253 113.2486
0.533076 26.384 113.0177
0.536939 26.516 112.7886
0.540830 26.649 112.5611
0.544749 26.783 112.3353
0.548696 26.917 112.1110
0.552673 27.053 111.8883
0.556677 27.190 111.6670
0.560711 27.328 111.4471
0.564774 27.467 111.2286
0.568867 27.606 111.0113
0.572989 27.747 110.7952
0.577141 27.889 110.5803
0.581324 28.032 110.3664
0.585536 28.176 110.1536
0.589779 28.321 109.9417
0.594053 28.467 109.7308
0.598358 28.614 109.5206
0.602694 28.762 109.3112
0.607061 28.911 109.1024
0.611460 29.062 108.8943
0.615891 29.213 108.6868
0.620354 29.365 108.4797
0.624849 29.519 108.2731
0.629377 29.674 108.0668
0.633938 29.830 107.8608
0.638532 29.987 107.6550
0.643159 30.145 107.4494
0.647819 30.304 107.2439
0.652514 30.464 107.0383
0.657242 30.626 106.8328
0.662005 30.789 106.6271
0.666802 30.952 106.4212
0.671634 31.118 106.2150
0.676501 31.284 106.0084
0.681403 31.451 105.8013
0.686341 31.620 105.5933
0.691314 31.790 105.3841
0.696324 31.960 105.1730
0.701370 32.132 104.9588
0.706452 32.304 104.7395
0.711571 32.476 104.5120
0.716728 32.647 104.2712
0.721921 32.816 104.0107
0.727153 32.983 103.7223
0.732422 33.145 103.3991
0.737729 33.302 103.0382
0.743075 33.455 102.6449
0.748460 33.605 102.2281
0.753883 33.752 101.7966
0.759346 33.897 101.3575
0.764849 34.041 100.9156
0.770391 34.185 100.4739
0.775974 34.327 100.0342
0.781597 34.469 99.5972
0.787261 34.611 99.1635
0.792966 34.752 98.7331
0.798712 34.892 98.3062
0.804500 35.033 97.8824
0.810329 35.172 97.4617
0.816201 35.312 97.0439
0.822116 35.450 96.6287
0.828073 35.589 96.2160
0.834074 35.727 95.8055
0.840118 35.864 95.3969
0.846206 36.002 94.9900
0.852338 36.139 94.5845
0.858514 36.275 94.1801
0.864735 36.411 93.7766
0.871001 36.547 93.3737
0.877313 36.683 92.9710
0.883670 36.818 92.5684
0.890074 36.953 92.1654
0.896524 37.088 91.7618
0.903020 37.222 91.3573
0.909564 37.357 90.9516
0.916155 37.491 90.5443
0.922794 37.625 90.1352
0.929481 37.759 89.7239
0.936216 37.892 89.3101
0.943000 38.026 88.8935
0.949834 38.160 88.4737
0.956717 38.294 88.0504
0.963649 38.427 87.6234
0.970632 38.561 87.1921
0.977666 38.695 86.7564
0.984750 38.829 86.3158
0.991886 38.964 85.8700
0.999074 39.098 85.4187
1.006314 39.233 84.9615
1.013606 39.369 84.4980
1.020951 39.504 84.0279
1.028349 39.641 83.5508
1.035801 39.777 83.0665
1.043307 39.915 82.5744
1.050867 40.053 82.0743
1.058482 40.191 81.5660
1.066152 40.331 81.0492
1.073878 40.471 80.5238
1.081660 40.612 79.9899
1.089498 40.753 79.4480
1.097393 40.895 78.8987
1.105345 41.037 78.3430
1.113355 41.179 77.7821
1.121423 41.322 77.2171
1.129549 41.464 76.6489
1.137734 41.605 76.0783
1.145979 41.747 75.5059
1.154283 41.888 74.9322
1.162647 42.029 74.3574
1.171072 42.169 73.7820
1.179558 42.309 73.2062
1.188106 42.449 72.6303
1.196715 42.588 72.0543
1.205387 42.727 71.4785
1.214122 42.866 70.9029
1.222920 43.005 70.3278
1.231782 43.143 69.7530
1.240708 43.281 69.1788
1.249699 43.419 68.6051
1.258754 43.556 68.0320
1.267876 43.694 67.4593
1.277063 43.831 66.8871
1.286318 43.968 66.3153
1.295639 44.105 65.7438
1.305027 44.241 65.1725
1.314484 44.378 64.6012
1.324009 44.515 64.0299
1.333604 44.651 63.4583
1.343268 44.788 62.8864
1.353002 44.924 62.3138
1.362806 45.061 61.7403
1.372681 45.197 61.1658
1.382628 45.334 60.5900
1.392647 45.471 60.0126
1.402739 45.608 59.4334
1.412904 45.746 58.8520
1.423142 45.883 58.2683
1.433455 46.021 57.6820
1.443843 46.159 57.0930
1.454305 46.297 56.5012
1.464844 46.435 55.9066
1.475459 46.573 55.3095
1.486150 46.711 54.7101
1.496920 46.849 54.1089
1.507767 46.986 53.5061
1.518693 47.123 52.9021
1.529698 47.259 52.2971
1.540783 47.395 51.6912
1.551948 47.531 51.0847
1.563194 47.666 50.4776
1.574521 47.800 49.8701
1.585931 47.935 49.2622
1.597423 48.068 48.6540
1.608999 48.202 48.0454
1.620658 48.335 47.4366
1.632402 48.468 46.8273
1.644232 48.600 46.2176
1.656146 48.732 45.6075
1.668147 48.864 44.9967
1.680235 48.996 44.3852
1.692411 49.127 43.7729
1.704675 49.258 43.1595
1.717028 49.390 42.5449
1.729470 49.520 41.9290
1.742003 49.651 41.3113
1.754626 49.782 40.6918
1.767341 49.913 40.0701
1.780147 50.043 39.4460
1.793047 50.174 38.8189
1.806040 50.304 38.1887
1.819128 50.435 37.5547
1.832310 50.565 36.9168
1.845587 50.695 36.2745
1.858961 50.824 35.6278
1.872432 50.953 34.9768
1.886001 51.081 34.3218
1.899667 51.209 33.6633
1.913433 51.336 33.0016
1.927299 51.463 32.3375
1.941265 51.589 31.6714
1.955332 51.715 31.0038
1.969501 51.840 30.3354
1.983773 51.964 29.6665
1.998148 52.088 28.9976
2.012627 52.212 28.3291
2.027212 52.335 27.6614
2.041902 52.458 26.9949
2.056698 52.580 26.3298
2.071602 52.702 25.6664
2.086614 52.824 25.0050
2.101734 52.946 24.3456
2.116964 53.067 23.6883
2.132304 53.188 23.0332
2.147756 53.309 22.3801
2.163320 53.430 21.7287
2.178996 53.550 21.0784
2.194786 53.671 20.4286
2.210690 53.790 19.7785
2.226710 53.910 19.1272
2.242845 54.029 18.4744
2.259098 54.147 17.8198
2.275468 54.264 17.1636
2.291957 54.381 16.5061
2.308566 54.497 15.8477
2.325295 54.613 15.1888
2.342145 54.728 14.5299
2.359117 54.842 13.8717
2.376212 54.956 13.2146
2.393431 55.070 12.5591
2.410775 55.183 11.9058
2.428244 55.295 11.2550
2.445840 55.408 10.6072
2.463564 55.520 9.9627
2.481416 55.632 9.3219
2.499397 55.744 8.6850
2.517509 55.856 8.0518
2.535752 55.968 7.4224
2.554127 56.079 6.7961
2.572635 56.191 6.1724
2.591277 56.301 5.5506
2.610055 56.412 4.9300
2.628968 56.521 4.3102
2.648019 56.630 3.6912
2.667208 56.739 3.0728
2.686535 56.847 2.4553
2.706003 56.955 1.8391
2.725612 57.062 1.2243
2.745363 57.169 0.6114
2.765257 57.276 0.0007
2.785295 57.383 -0.6074
2.805478 57.489 -1.2124
2.825808 57.595 -1.8142
2.846285 57.702 -2.4123
2.866910 57.808 -3.0065
2.887685 57.914 -3.5967
2.908611 58.021 -4.1829
2.929688 58.127 -4.7653
2.950917 58.234 -5.3441
2.972301 58.340 -5.9199
2.993839 58.446 -6.4928
3.015534 58.552 -7.0632
3.037386 58.658 -7.6313
3.059396 58.763 -8.1972
3.081565 58.869 -8.7610
3.103896 58.974 -9.3228
3.126388 59.079 -9.8825
3.149043 59.185 -10.4402
3.171862 59.290 -10.9959
3.194847 59.396 -11.5496
3.217998 59.501 -12.1011
3.241317 59.608 -12.6504
3.264805 59.714 -13.1975
3.288463 59.820 -13.7423
3.312293 59.927 -14.2846
3.336295 60.034 -14.8246
3.360471 60.141 -15.3622
3.384822 60.249 -15.8978
3.409350 60.356 -16.4314
3.434056 60.464 -16.9634
3.458940 60.571 -17.4942
3.484005 60.679 -18.0241
3.509252 60.787 -18.5536
3.534681 60.895 -19.0828
3.560295 61.004 -19.6123
3.586094 61.112 -20.1422
3.612081 61.221 -20.6727
3.638255 61.330 -21.2039
3.664620 61.439 -21.7358
3.691175 61.548 -22.2682
3.717923 61.658 -22.8010
3.744864 61.767 -23.3341
3.772001 61.877 -23.8675
3.799335 61.987 -24.4014
3.826866 62.097 -24.9358
3.854597 62.207 -25.4710
3.882529 62.317 -26.0074
3.910664 62.427 -26.5451
3.939002 62.537 -27.0845
3.967546 62.647 -27.6260
3.996296 62.756 -28.1698
4.025255 62.866 -28.7161
4.054423 62.975 -29.2649
4.083804 63.084 -29.8164
4.113396 63.192 -30.3702
4.143204 63.301 -30.9261
4.173227 63.409 -31.4839
4.203468 63.517 -32.0433
4.233928 63.625 -32.6039
4.264609 63.732 -33.1657
4.295512 63.838 -33.7286
4.326639 63.944 -34.2925
4.357992 64.049 -34.8578
4.389572 64.154 -35.4246
4.421380 64.258 -35.9932
4.453419 64.361 -36.5640
4.485691 64.463 -37.1367
4.518196 64.565 -37.7110
4.550936 64.666 -38.2863
4.583914 64.766 -38.8618
4.617131 64.865 -39.4368
4.650589 64.964 -40.0107
4.684289 65.062 -40.5829
4.718233 65.159 -41.1533
4.752424 65.254 -41.7219
4.786862 65.349 -42.2890
4.821549 65.443 -42.8550
4.856488 65.536 -43.4200
4.891680 65.628 -43.9836
4.927127 65.719 -44.5453
4.962831 65.809 -45.1043
4.998794 65.899 -45.6596
5.035017 65.987 -46.2105
5.071503 66.075 -46.7565
5.108253 66.162 -47.2972
5.145270 66.248 -47.8326
5.182555 66.334 -48.3631
5.220110 66.418 -48.8889
5.257937 66.502 -49.4100
5.296038 66.586 -49.9262
5.334415 66.668 -50.4373
5.373071 66.751 -50.9427
5.412006 66.833 -51.4421
5.451224 66.914 -51.9349
5.490725 66.996 -52.4212
5.530514 67.077 -52.9008
5.570590 67.158 -53.3741
5.610957 67.239 -53.8413
5.651616 67.320 -54.3028
5.692570 67.400 -54.7591
5.733821 67.481 -55.2104
5.775370 67.562 -55.6569
5.817221 67.643 -56.0989
5.859375 67.724 -56.5364
5.901834 67.806 -56.9696
5.944602 67.888 -57.3985
5.987679 67.970 -57.8238
6.031068 68.053 -58.2459
6.074771 68.136 -58.6658
6.118792 68.219 -59.0841
6.163131 68.303 -59.5015
6.207792 68.386 -59.9185
6.252776 68.471 -60.3354
6.298086 68.555 -60.7524
6.343725 68.640 -61.1695
6.389694 68.725 -61.5873
6.435996 68.810 -62.0060
6.482634 68.895 -62.4263
6.529610 68.980 -62.8487
6.576926 69.064 -63.2735
6.624585 69.149 -63.7009
6.672590 69.233 -64.1311
6.720942 69.317 -64.5638
6.769645 69.400 -64.9988
6.818700 69.483 -65.4357
6.868111 69.565 -65.8744
6.917881 69.646 -66.3148
6.968010 69.727 -66.7567
7.018504 69.806 -67.2000
7.069362 69.885 -67.6444
7.120590 69.962 -68.0892
7.172189 70.039 -68.5337
7.224161 70.114 -68.9768
7.276511 70.188 -69.4180
7.329239 70.261 -69.8566
7.382350 70.333 -70.2922
7.435845 70.404 -70.7246
7.489729 70.474 -71.1531
7.544002 70.543 -71.5770
7.598669 70.611 -71.9955
7.653732 70.678 -72.4077
7.709194 70.744 -72.8132
7.765058 70.810 -73.2118
7.821327 70.875 -73.6034
7.878004 70.940 -73.9881
7.935091 71.005 -74.3658
7.992592 71.070 -74.7364
8.050510 71.135 -75.1001
8.108847 71.200 -75.4569
8.167607 71.265 -75.8073
8.226793 71.331 -76.1522
8.286408 71.397 -76.4924
8.346454 71.464 -76.8289
8.406936 71.532 -77.1628
8.467856 71.601 -77.4948
8.529218 71.670 -77.8258
8.591024 71.741 -78.1570
8.653278 71.812 -78.4897
8.715983 71.884 -78.8254
8.779143 71.957 -79.1655
8.842760 72.030 -79.5108
8.906839 72.104 -79.8621
8.971381 72.179 -80.2203
9.036392 72.253 -80.5862
9.101873 72.328 -80.9605
9.167829 72.402 -81.3440
9.234263 72.476 -81.7367
9.301178 72.549 -82.1387
9.368578 72.621 -82.5496
9.436467 72.692 -82.9690
9.504847 72.762 -83.3963
9.573723 72.830 -83.8310
9.643099 72.897 -84.2721
9.712976 72.962 -84.7183
9.783361 73.024 -85.1682
9.854255 73.085 -85.6201
9.925663 73.143 -86.0726
9.997588 73.200 -86.5242
10.070035 73.254 -86.9732
10.143007 73.306 -87.4178
10.216507 73.356 -87.8560
10.290540 73.404 -88.2862
10.365109 73.451 -88.7071
10.440219 73.496 -89.1173
10.515873 73.540 -89.5156
10.592076 73.583 -89.9010
10.668830 73.625 -90.2727
10.746141 73.668 -90.6303
10.824012 73.710 -90.9741
10.902447 73.753 -91.3043
10.981451 73.797 -91.6216
11.061027 73.842 -91.9271
11.141180 73.889 -92.2221
11.221913 73.938 -92.5086
11.303232 73.989 -92.7890
11.385140 74.042 -93.0655
11.467641 74.097 -93.3406
11.550741 74.155 -93.6171
11.634442 74.216 -93.8980
11.718750 74.278 -94.1860
11.803669 74.343 -94.4839
11.889203 74.410 -94.7940
11.975357 74.478 -95.1183
12.062136 74.548 -95.4589
12.149543 74.618 -95.8171
12.237583 74.689 -96.1937
12.326262 74.759 -96.5889
12.415583 74.829 -97.0026
12.505552 74.898 -97.4341
12.596172 74.965 -97.8822
12.687449 75.030 -98.3449
12.779387 75.093 -98.8200
12.871992 75.154 -99.3050
12.965268 75.212 -99.7971
13.059220 75.266 -100.2933
13.153852 75.319 -100.7901
13.249170 75.368 -101.2846
13.345179 75.415 -101.7738
13.441884 75.459 -102.2552
13.539289 75.502 -102.7263
13.637401 75.543 -103.1853
13.736223 75.583 -103.6311
13.835761 75.623 -104.0633
13.936021 75.663 -104.4819
14.037007 75.703 -104.8879
14.138725 75.744 -105.2829
14.241180 75.786 -105.6691
14.344377 75.830 -106.0491
14.448323 75.875 -106.4256
14.553021 75.922 -106.8017
14.658478 75.971 -107.1803
14.764700 76.020 -107.5638
14.871691 76.071 -107.9540
14.979457 76.121 -108.3523
15.088005 76.172 -108.7591
15.197339 76.222 -109.1739
15.307465 76.270 -109.5952
15.418389 76.317 -110.0209
15.530117 76.363 -110.4483
15.642655 76.406 -110.8741
15.756008 76.447 -111.2948
15.870182 76.487 -111.7073
15.985184 76.526 -112.1086
16.101019 76.563 -112.4967
16.217694 76.601 -112.8705
16.335214 76.639 -113.2301
16.453586 76.678 -113.5769
16.572815 76.719 -113.9135
16.692909 76.762 -114.2437
16.813872 76.807 -114.5721
16.935713 76.855 -114.9037
17.058436 76.904 -115.2435
17.182048 76.955 -115.5959
17.306556 77.007 -115.9642
17.431967 77.058 -116.3503
17.558286 77.108 -116.7542
17.685521 77.156 -117.1744
17.813677 77.201 -117.6071
17.942762 77.242 -118.0472
18.072783 77.278 -118.4885
18.203746 77.310 -118.9240
18.335658 77.338 -119.3467
18.468526 77.362 -119.7504
18.602356 77.384 -120.1304
18.737156 77.404 -120.4836
18.872934 77.424 -120.8095
19.009695 77.445 -121.1099
19.147447 77.467 -121.3891
19.286197 77.493 -121.6529
19.425953 77.521 -121.9085
19.566721 77.552 -122.1632
19.708510 77.586 -122.4235
19.851326 77.621 -122.6944
19.995177 77.656 -122.9784
20.140070 77.691 -123.2756
20.286013 77.725 -123.5834
20.433014 77.756 -123.8973
20.581080 77.785 -124.2117
20.730219 77.812 -124.5208
20.880439 77.837 -124.8197
21.031747 77.862 -125.1058
21.184152 77.887 -125.3793
21.337661 77.915 -125.6435
21.492282 77.946 -125.9046
21.648024 77.980 -126.1713
21.804895 78.017 -126.4530
21.962902 78.057 -126.7585
22.122054 78.098 -127.0945
22.282360 78.138 -127.4642
22.443827 78.176 -127.8664
22.606464 78.210 -128.2958
22.770280 78.239 -128.7433
22.935283 78.262 -129.1973
23.101481 78.280 -129.6453
23.268884 78.293 -130.0762
23.437500 78.304 -130.4812
23.607338 78.314 -130.8562
23.778406 78.326 -131.2016
23.950714 78.341 -131.5231
24.124271 78.361 -131.8298
24.299086 78.386 -132.1333
24.475167 78.417 -132.4451
24.652524 78.453 -132.7753
24.831166 78.492 -133.1306
25.011103 78.532 -133.5142
25.192344 78.573 -133.9259
25.374898 78.614 -134.3628
25.558775 78.653 -134.8207
25.743984 78.690 -135.2947
25.930536 78.725 -135.7800
26.118439 78.757 -136.2714
26.307704 78.786 -136.7626
26.498341 78.812 -137.2453
26.690359 78.833 -137.7086
26.883768 78.850 -138.1384
27.078579 78.865 -138.5200
27.274801 78.880 -138.8403
27.472446 78.899 -139.0925
27.671522 78.927 -139.2803
27.872042 78.967 -139.4221
28.074014 79.024 -139.5509
28.277450 79.100 -139.7112
28.482360 79.191 -139.9517
28.688755 79.291 -140.3153
28.896645 79.393 -140.8284
29.106042 79.486 -141.4945
29.316957 79.559 -142.2910
29.529400 79.604 -143.1710
29.743382 79.615 -144.0691
29.958915 79.593 -144.9101
30.176009 79.541 -145.6198
30.394677 79.467 -146.1370
30.614929 79.384 -146.4258
30.836778 79.306 -146.4851
31.060234 79.244 -146.3510
31.285309 79.208 -146.0914
31.512015 79.201 -145.7893
31.740364 79.217 -145.5225
31.970368 79.250 -145.3456
32.202039 79.289 -145.2800
32.435388 79.325 -145.3152
32.670428 79.352 -145.4181
32.907171 79.369 -145.5467
33.145630 79.376 -145.6633
33.385817 79.380 -145.7451
33.627745 79.384 -145.7891
33.871425 79.395 -145.8109
34.116871 79.414 -145.8388
34.364096 79.441 -145.9047
34.613113 79.474 -146.0353
34.863934 79.509 -146.2462
35.116572 79.540 -146.5395
35.371041 79.565 -146.9046
35.627354 79.580 -147.3216
35.885525 79.584 -147.7643
36.145566 79.578 -148.2051
36.407492 79.562 -148.6182
36.671316 79.542 -148.9848
36.937051 79.521 -149.2964
37.204712 79.505 -149.5583
37.474313 79.496 -149.7887
37.745867 79.496 -150.0152
38.019389 79.506 -150.2667
38.294893 79.521 -150.5649
38.572394 79.537 -150.9173
38.851905 79.550 -151.3146
39.133442 79.556 -151.7335
39.417019 79.554 -152.1444
39.702651 79.547 -152.5210
39.990353 79.538 -152.8484
40.280140 79.531 -153.1273
40.572026 79.530 -153.3717
40.866028 79.535 -153.6029
41.162160 79.545 -153.8403
41.460438 79.557 -154.0950
41.760877 79.570 -154.3673
42.063494 79.581 -154.6487
42.368303 79.589 -154.9276
42.675322 79.596 -155.1946
42.984565 79.603 -155.4459
43.296048 79.611 -155.6840
43.609789 79.621 -155.9153
43.925804 79.632 -156.1463
44.244108 79.645 -156.3812
44.564719 79.658 -156.6198
44.887654 79.670 -156.8588
45.212928 79.683 -157.0939
45.540560 79.696 -157.3224
45.870565 79.711 -157.5450
46.202962 79.728 -157.7667
46.537768 79.747 -157.9953
46.875000 79.768 -158.2390
47.214676 79.788 -158.5029
47.556813 79.807 -158.7872
47.901429 79.821 -159.0859
48.248542 79.831 -159.3878
48.598171 79.835 -159.6792
48.950334 79.835 -159.9480
49.305048 79.832 -160.1874
49.662333 79.829 -160.3979
50.022206 79.827 -160.5877
50.384688 79.828 -160.7692
50.749796 79.829 -160.9551
51.117550 79.832 -161.1541
51.487969 79.834 -161.3697
51.861072 79.835 -161.6011
52.236879 79.834 -161.8450
52.615409 79.831 -162.0980
52.996681 79.826 -162.3561
53.380717 79.819 -162.6151
53.767536 79.811 -162.8705
54.157158 79.802 -163.1189
54.549603 79.794 -163.3587
54.944892 79.787 -163.5890
55.343045 79.780 -163.8093
55.744084 79.776 -164.0189
56.148028 79.773 -164.2183
56.554900 79.772 -164.4091
56.964720 79.772 -164.5912
57.377510 79.772 -164.7581
57.793291 79.773 -164.8979
58.212085 79.777 -165.0025
58.633914 79.787 -165.0807
59.058799 79.805 -165.1629
59.486764 79.830 -165.2883
59.917829 79.856 -165.4814
60.352019 79.876 -165.7357
60.789354 79.887 -166.0198
61.229859 79.888 -166.2996
61.673556 79.884 -166.5574
62.120468 79.878 -166.7947
62.570618 79.871 -167.0210
63.024031 79.864 -167.2429
63.480729 79.857 -167.4639
63.940736 79.851 -167.6888
64.404077 79.845 -167.9231
64.870776 79.840 -168.1683
65.340856 79.833 -168.4186
65.814343 79.824 -168.6665
66.291261 79.816 -168.9075
66.771635 79.807 -169.1396
67.255489 79.797 -169.3598
67.742850 79.788 -169.5645
68.233743 79.780 -169.7556
68.728193 79.774 -169.9404
69.226226 79.768 -170.1239
69.727867 79.762 -170.3036
70.233144 79.757 -170.4756
70.742083 79.753 -170.6455
71.254709 79.751 -170.8273
71.771050 79.750 -171.0314
72.291132 79.745 -171.2531
72.814984 79.738 -171.4780
73.342631 79.728 -171.6945
73.874102 79.718 -171.9014
74.409424 79.707 -172.1028
74.948626 79.697 -172.3014
75.491734 79.686 -172.4976
76.038779 79.676 -172.6915
76.589787 79.664 -172.8831
77.144788 79.652 -173.0690
77.703811 79.639 -173.2433
78.266885 79.628 -173.4040
78.834039 79.619 -173.5606
79.405303 79.613 -173.7328
79.980706 79.607 -173.9366
80.560280 79.597 -174.1652
81.144053 79.581 -174.3866
81.732056 79.561 -174.5656
82.324320 79.544 -174.6939
82.920876 79.534 -174.7975
83.521755 79.530 -174.9137
84.126988 79.529 -175.0623
84.736607 79.527 -175.2384
85.350643 79.522 -175.4281
85.969129 79.514 -175.6188
86.592097 79.503 -175.7990
87.219579 79.491 -175.9597
87.851608 79.482 -176.1058
88.488217 79.475 -176.2611
89.129439 79.471 -176.4503
89.775308 79.463 -176.6730
90.425856 79.449 -176.8999
91.081119 79.431 -177.0987
91.741131 79.412 -177.2583
