* Measurement data measured by REW V5.31.3
* Source: Headset (CX31993 HIFI AUDIO), MICROPHONE (Master Volume), R, volume: 0.250
* Format: 256k Log Swept Sine, 1 sweep at -12.0 dBFS with no timing reference
* Dated: 01 20, 25 1:31:12 PM
* REW Settings:
*  C-weighting compensation: Off
*  Target level: 75.0 dB
* Note: ; 
* Measurement: Quarks2 FinchPreset R
* Smoothing: 1/12 octave
* Frequency Step: 96 ppo
* Start Frequency: 0.36621094 Hz
*
* Freq(Hz) SPL(dB) Phase(degrees)
0.366211 55.517 20.2456
0.368865 55.548 20.1280
0.371538 55.594 19.9541
0.374230 55.652 19.7396
0.376942 55.716 19.4982
0.379673 55.785 19.2397
0.382424 55.856 18.9705
0.385196 55.930 18.6947
0.387987 56.005 18.4147
0.390798 56.080 18.1318
0.393630 56.157 17.8468
0.396483 56.234 17.5601
0.399356 56.311 17.2719
0.402250 56.389 16.9826
0.405165 56.468 16.6921
0.408101 56.547 16.4007
0.411058 56.627 16.1083
0.414037 56.708 15.8152
0.417037 56.789 15.5214
0.420059 56.870 15.2269
0.423103 56.952 14.9319
0.426169 57.035 14.6363
0.429257 57.119 14.3404
0.432368 57.203 14.0441
0.435501 57.287 13.7475
0.438656 57.373 13.4508
0.441835 57.459 13.1538
0.445037 57.545 12.8568
0.448262 57.632 12.5597
0.451510 57.720 12.2625
0.454782 57.808 11.9655
0.458077 57.897 11.6684
0.461397 57.987 11.3715
0.464740 58.077 11.0748
0.468108 58.168 10.7782
0.471500 58.260 10.4818
0.474917 58.352 10.1855
0.478358 58.445 9.8896
0.481825 58.539 9.5938
0.485316 58.633 9.2983
0.488833 58.728 9.0030
0.492375 58.824 8.7079
0.495943 58.920 8.4131
0.499537 59.017 8.1185
0.503157 59.115 7.8241
0.506803 59.214 7.5299
0.510475 59.313 7.2359
0.514175 59.413 6.9420
0.517900 59.514 6.6482
0.521653 59.615 6.3544
0.525434 59.717 6.0607
0.529241 59.820 5.7670
0.533076 59.924 5.4733
0.536939 60.028 5.1794
0.540830 60.133 4.8854
0.544749 60.239 4.5912
0.548696 60.346 4.2967
0.552673 60.453 4.0019
0.556677 60.561 3.7067
0.560711 60.670 3.4110
0.564774 60.780 3.1148
0.568867 60.891 2.8179
0.572989 61.002 2.5204
0.577141 61.114 2.2220
0.581324 61.227 1.9228
0.585536 61.341 1.6227
0.589779 61.456 1.3215
0.594053 61.572 1.0191
0.598358 61.688 0.7156
0.602694 61.805 0.4106
0.607061 61.923 0.1042
0.611460 62.042 -0.2037
0.615891 62.162 -0.5133
0.620354 62.282 -0.8247
0.624849 62.404 -1.1380
0.629377 62.526 -1.4533
0.633938 62.650 -1.7708
0.638532 62.774 -2.0905
0.643159 62.899 -2.4127
0.647819 63.025 -2.7374
0.652514 63.152 -3.0647
0.657242 63.279 -3.3949
0.662005 63.408 -3.7280
0.666802 63.538 -4.0642
0.671634 63.668 -4.4037
0.676501 63.800 -4.7466
0.681403 63.932 -5.0931
0.686341 64.066 -5.4433
0.691314 64.200 -5.7973
0.696324 64.335 -6.1554
0.701370 64.471 -6.5176
0.706452 64.607 -6.8842
0.711571 64.743 -7.2550
0.716728 64.879 -7.6302
0.721921 65.013 -8.0095
0.727153 65.144 -8.3927
0.732422 65.273 -8.7792
0.737729 65.397 -9.1684
0.743075 65.518 -9.5596
0.748460 65.636 -9.9521
0.753883 65.752 -10.3454
0.759346 65.866 -10.7390
0.764849 65.980 -11.1328
0.770391 66.092 -11.5264
0.775974 66.205 -11.9197
0.781597 66.316 -12.3126
0.787261 66.428 -12.7050
0.792966 66.539 -13.0968
0.798712 66.649 -13.4878
0.804500 66.759 -13.8781
0.810329 66.869 -14.2676
0.816201 66.979 -14.6563
0.822116 67.088 -15.0441
0.828073 67.197 -15.4311
0.834074 67.305 -15.8171
0.840118 67.413 -16.2023
0.846206 67.521 -16.5866
0.852338 67.628 -16.9700
0.858514 67.736 -17.3527
0.864735 67.842 -17.7345
0.871001 67.949 -18.1156
0.877313 68.055 -18.4961
0.883670 68.161 -18.8759
0.890074 68.267 -19.2552
0.896524 68.372 -19.6341
0.903020 68.478 -20.0126
0.909564 68.583 -20.3908
0.916155 68.688 -20.7689
0.922794 68.792 -21.1469
0.929481 68.897 -21.5250
0.936216 69.001 -21.9032
0.943000 69.105 -22.2819
0.949834 69.209 -22.6609
0.956717 69.313 -23.0406
0.963649 69.417 -23.4211
0.970632 69.521 -23.8026
0.977666 69.625 -24.1851
0.984750 69.729 -24.5689
0.991886 69.833 -24.9542
0.999074 69.937 -25.3412
1.006314 70.042 -25.7300
1.013606 70.146 -26.1209
1.020951 70.251 -26.5141
1.028349 70.356 -26.9098
1.035801 70.461 -27.3083
1.043307 70.566 -27.7097
1.050867 70.672 -28.1144
1.058482 70.778 -28.5225
1.066152 70.885 -28.9345
1.073878 70.992 -29.3504
1.081660 71.099 -29.7705
1.089498 71.207 -30.1952
1.097393 71.315 -30.6245
1.105345 71.423 -31.0586
1.113355 71.530 -31.4974
1.121423 71.638 -31.9408
1.129549 71.745 -32.3887
1.137734 71.852 -32.8409
1.145979 71.958 -33.2969
1.154283 72.064 -33.7567
1.162647 72.170 -34.2198
1.171072 72.275 -34.6860
1.179558 72.380 -35.1551
1.188106 72.484 -35.6267
1.196715 72.587 -36.1006
1.205387 72.691 -36.5765
1.214122 72.794 -37.0542
1.222920 72.896 -37.5335
1.231782 72.998 -38.0141
1.240708 73.100 -38.4958
1.249699 73.201 -38.9785
1.258754 73.302 -39.4619
1.267876 73.402 -39.9458
1.277063 73.503 -40.4301
1.286318 73.603 -40.9146
1.295639 73.702 -41.3991
1.305027 73.802 -41.8836
1.314484 73.901 -42.3679
1.324009 74.000 -42.8519
1.333604 74.098 -43.3354
1.343268 74.197 -43.8185
1.353002 74.295 -44.3009
1.362806 74.394 -44.7827
1.372681 74.492 -45.2637
1.382628 74.590 -45.7440
1.392647 74.688 -46.2235
1.402739 74.787 -46.7022
1.412904 74.885 -47.1802
1.423142 74.983 -47.6575
1.433455 75.082 -48.1343
1.443843 75.180 -48.6110
1.454305 75.278 -49.0877
1.464844 75.377 -49.5652
1.475459 75.475 -50.0438
1.486150 75.572 -50.5241
1.496920 75.670 -51.0064
1.507767 75.766 -51.4910
1.518693 75.863 -51.9779
1.529698 75.958 -52.4671
1.540783 76.053 -52.9584
1.551948 76.148 -53.4519
1.563194 76.242 -53.9472
1.574521 76.335 -54.4443
1.585931 76.428 -54.9431
1.597423 76.520 -55.4434
1.608999 76.612 -55.9450
1.620658 76.704 -56.4480
1.632402 76.794 -56.9520
1.644232 76.885 -57.4572
1.656146 76.975 -57.9633
1.668147 77.064 -58.4703
1.680235 77.154 -58.9782
1.692411 77.242 -59.4868
1.704675 77.331 -59.9962
1.717028 77.419 -60.5063
1.729470 77.507 -61.0171
1.742003 77.595 -61.5286
1.754626 77.682 -62.0408
1.767341 77.769 -62.5540
1.780147 77.856 -63.0681
1.793047 77.943 -63.5835
1.806040 78.030 -64.1006
1.819128 78.116 -64.6199
1.832310 78.202 -65.1421
1.845587 78.287 -65.6680
1.858961 78.372 -66.1981
1.872432 78.457 -66.7329
1.886001 78.541 -67.2724
1.899667 78.624 -67.8165
1.913433 78.706 -68.3650
1.927299 78.788 -68.9175
1.941265 78.869 -69.4736
1.955332 78.949 -70.0329
1.969501 79.029 -70.5948
1.983773 79.108 -71.1589
1.998148 79.187 -71.7248
2.012627 79.265 -72.2919
2.027212 79.342 -72.8599
2.041902 79.419 -73.4283
2.056698 79.496 -73.9966
2.071602 79.571 -74.5645
2.086614 79.647 -75.1316
2.101734 79.722 -75.6976
2.116964 79.797 -76.2621
2.132304 79.871 -76.8250
2.147756 79.945 -77.3863
2.163320 80.019 -77.9461
2.178996 80.092 -78.5050
2.194786 80.164 -79.0637
2.210690 80.237 -79.6232
2.226710 80.308 -80.1845
2.242845 80.379 -80.7483
2.259098 80.449 -81.3152
2.275468 80.519 -81.8851
2.291957 80.587 -82.4580
2.308566 80.655 -83.0335
2.325295 80.722 -83.6114
2.342145 80.788 -84.1910
2.359117 80.854 -84.7720
2.376212 80.919 -85.3538
2.393431 80.984 -85.9359
2.410775 81.047 -86.5177
2.428244 81.111 -87.0987
2.445840 81.173 -87.6784
2.463564 81.236 -88.2563
2.481416 81.297 -88.8321
2.499397 81.359 -89.4054
2.517509 81.420 -89.9762
2.535752 81.480 -90.5445
2.554127 81.540 -91.1110
2.572635 81.600 -91.6762
2.591277 81.659 -92.2412
2.610055 81.717 -92.8066
2.628968 81.774 -93.3732
2.648019 81.831 -93.9411
2.667208 81.887 -94.5102
2.686535 81.942 -95.0806
2.706003 81.996 -95.6518
2.725612 82.050 -96.2235
2.745363 82.103 -96.7953
2.765257 82.156 -97.3667
2.785295 82.208 -97.9373
2.805478 82.259 -98.5066
2.825808 82.310 -99.0740
2.846285 82.361 -99.6393
2.866910 82.411 -100.2022
2.887685 82.461 -100.7624
2.908611 82.511 -101.3202
2.929688 82.560 -101.8758
2.950917 82.608 -102.4300
2.972301 82.656 -102.9832
2.993839 82.704 -103.5359
3.015534 82.750 -104.0886
3.037386 82.796 -104.6413
3.059396 82.842 -105.1939
3.081565 82.887 -105.7462
3.103896 82.931 -106.2981
3.126388 82.975 -106.8491
3.149043 83.019 -107.3991
3.171862 83.062 -107.9475
3.194847 83.104 -108.4940
3.217998 83.147 -109.0385
3.241317 83.189 -109.5805
3.264805 83.231 -110.1201
3.288463 83.272 -110.6573
3.312293 83.314 -111.1924
3.336295 83.354 -111.7256
3.360471 83.395 -112.2574
3.384822 83.435 -112.7880
3.409350 83.475 -113.3177
3.434056 83.514 -113.8465
3.458940 83.553 -114.3745
3.484005 83.591 -114.9016
3.509252 83.629 -115.4279
3.534681 83.667 -115.9534
3.560295 83.705 -116.4778
3.586094 83.742 -117.0012
3.612081 83.779 -117.5236
3.638255 83.816 -118.0449
3.664620 83.853 -118.5654
3.691175 83.889 -119.0850
3.717923 83.926 -119.6041
3.744864 83.961 -120.1227
3.772001 83.997 -120.6409
3.799335 84.033 -121.1589
3.826866 84.068 -121.6767
3.854597 84.102 -122.1942
3.882529 84.137 -122.7115
3.910664 84.171 -123.2287
3.939002 84.205 -123.7457
3.967546 84.239 -124.2625
3.996296 84.272 -124.7794
4.025255 84.305 -125.2962
4.054423 84.338 -125.8133
4.083804 84.371 -126.3308
4.113396 84.403 -126.8487
4.143204 84.435 -127.3671
4.173227 84.467 -127.8860
4.203468 84.498 -128.4054
4.233928 84.529 -128.9252
4.264609 84.559 -129.4454
4.295512 84.589 -129.9660
4.326639 84.619 -130.4870
4.357992 84.648 -131.0084
4.389572 84.677 -131.5305
4.421380 84.705 -132.0534
4.453419 84.733 -132.5773
4.485691 84.760 -133.1023
4.518196 84.787 -133.6283
4.550936 84.813 -134.1552
4.583914 84.839 -134.6827
4.617131 84.864 -135.2105
4.650589 84.889 -135.7384
4.684289 84.913 -136.2662
4.718233 84.936 -136.7939
4.752424 84.959 -137.3214
4.786862 84.981 -137.8489
4.821549 85.003 -138.3767
4.856488 85.023 -138.9048
4.891680 85.044 -139.4331
4.927127 85.063 -139.9615
4.962831 85.082 -140.4896
4.998794 85.100 -141.0170
5.035017 85.117 -141.5434
5.071503 85.134 -142.0685
5.108253 85.150 -142.5922
5.145270 85.166 -143.1145
5.182555 85.181 -143.6356
5.220110 85.195 -144.1555
5.257937 85.208 -144.6742
5.296038 85.221 -145.1917
5.334415 85.233 -145.7077
5.373071 85.244 -146.2219
5.412006 85.255 -146.7341
5.451224 85.265 -147.2439
5.490725 85.275 -147.7513
5.530514 85.284 -148.2562
5.570590 85.293 -148.7588
5.610957 85.301 -149.2592
5.651616 85.308 -149.7573
5.692570 85.315 -150.2532
5.733821 85.322 -150.7469
5.775370 85.328 -151.2383
5.817221 85.334 -151.7273
5.859375 85.339 -152.2139
5.901834 85.345 -152.6981
5.944602 85.349 -153.1799
5.987679 85.354 -153.6595
6.031068 85.358 -154.1370
6.074771 85.362 -154.6127
6.118792 85.365 -155.0868
6.163131 85.368 -155.5593
6.207792 85.371 -156.0304
6.252776 85.374 -156.5003
6.298086 85.377 -156.9688
6.343725 85.379 -157.4362
6.389694 85.381 -157.9026
6.435996 85.383 -158.3681
6.482634 85.384 -158.8331
6.529610 85.385 -159.2976
6.576926 85.386 -159.7619
6.624585 85.387 -160.2260
6.672590 85.387 -160.6901
6.720942 85.387 -161.1542
6.769645 85.386 -161.6182
6.818700 85.385 -162.0822
6.868111 85.384 -162.5463
6.917881 85.382 -163.0104
6.968010 85.379 -163.4747
7.018504 85.376 -163.9392
7.069362 85.372 -164.4038
7.120590 85.368 -164.8684
7.172189 85.363 -165.3328
7.224161 85.358 -165.7969
7.276511 85.352 -166.2603
7.329239 85.345 -166.7231
7.382350 85.337 -167.1852
7.435845 85.329 -167.6463
7.489729 85.320 -168.1064
7.544002 85.310 -168.5651
7.598669 85.300 -169.0223
7.653732 85.289 -169.4776
7.709194 85.277 -169.9308
7.765058 85.264 -170.3818
7.821327 85.251 -170.8305
7.878004 85.237 -171.2767
7.935091 85.222 -171.7204
7.992592 85.207 -172.1613
8.050510 85.191 -172.5992
8.108847 85.175 -173.0341
8.167607 85.158 -173.4659
8.226793 85.141 -173.8946
8.286408 85.123 -174.3203
8.346454 85.104 -174.7431
8.406936 85.086 -175.1629
8.467856 85.067 -175.5798
8.529218 85.047 -175.9939
8.591024 85.027 -176.4053
8.653278 85.007 -176.8141
8.715983 84.986 -177.2206
8.779143 84.965 -177.6249
8.842760 84.944 -178.0271
8.906839 84.923 -178.4274
8.971381 84.901 -178.8258
9.036392 84.879 -179.2225
9.101873 84.856 -179.6177
9.167829 84.833 179.9886
9.234263 84.810 179.5962
9.301178 84.786 179.2052
9.368578 84.761 178.8155
9.436467 84.737 178.4272
9.504847 84.711 178.0403
9.573723 84.685 177.6548
9.643099 84.659 177.2709
9.712976 84.632 176.8887
9.783361 84.604 176.5083
9.854255 84.576 176.1299
9.925663 84.547 175.7537
9.997588 84.518 175.3798
10.070035 84.488 175.0085
10.143007 84.457 174.6399
10.216507 84.426 174.2743
10.290540 84.394 173.9118
10.365109 84.361 173.5526
10.440219 84.328 173.1969
10.515873 84.294 172.8448
10.592076 84.260 172.4966
10.668830 84.225 172.1521
10.746141 84.190 171.8116
10.824012 84.154 171.4753
10.902447 84.118 171.1429
10.981451 84.081 170.8148
11.061027 84.044 170.4907
11.141180 84.007 170.1708
11.221913 83.969 169.8551
11.303232 83.931 169.5435
11.385140 83.892 169.2360
11.467641 83.854 168.9326
11.550741 83.815 168.6331
11.634442 83.775 168.3376
11.718750 83.736 168.0459
11.803669 83.696 167.7581
11.889203 83.656 167.4739
11.975357 83.615 167.1934
12.062136 83.575 166.9164
12.149543 83.534 166.6429
12.237583 83.493 166.3728
12.326262 83.451 166.1061
12.415583 83.410 165.8427
12.505552 83.368 165.5825
12.596172 83.326 165.3256
12.687449 83.283 165.0721
12.779387 83.240 164.8220
12.871992 83.197 164.5753
12.965268 83.153 164.3324
13.059220 83.108 164.0933
13.153852 83.064 163.8584
13.249170 83.019 163.6279
13.345179 82.973 163.4022
13.441884 82.927 163.1816
13.539289 82.880 162.9664
13.637401 82.834 162.7571
13.736223 82.786 162.5540
13.835761 82.739 162.3572
13.936021 82.691 162.1672
14.037007 82.643 161.9840
14.138725 82.595 161.8077
14.241180 82.547 161.6382
14.344377 82.499 161.4754
14.448323 82.451 161.3191
14.553021 82.403 161.1688
14.658478 82.356 161.0242
14.764700 82.309 160.8847
14.871691 82.262 160.7498
14.979457 82.216 160.6190
15.088005 82.169 160.4919
15.197339 82.123 160.3679
15.307465 82.078 160.2468
15.418389 82.032 160.1285
15.530117 81.986 160.0129
15.642655 81.940 159.9002
15.756008 81.894 159.7907
15.870182 81.848 159.6849
15.985184 81.801 159.5834
16.101019 81.754 159.4868
16.217694 81.707 159.3958
16.335214 81.660 159.3110
16.453586 81.612 159.2332
16.572815 81.565 159.1626
16.692909 81.518 159.0997
16.813872 81.470 159.0445
16.935713 81.424 158.9968
17.058436 81.377 158.9563
17.182048 81.332 158.9224
17.306556 81.287 158.8944
17.431967 81.243 158.8715
17.558286 81.199 158.8529
17.685521 81.156 158.8378
17.813677 81.114 158.8256
17.942762 81.073 158.8157
18.072783 81.032 158.8080
18.203746 80.992 158.8025
18.335658 80.952 158.7993
18.468526 80.912 158.7987
18.602356 80.872 158.8013
18.737156 80.833 158.8076
18.872934 80.794 158.8179
19.009695 80.756 158.8325
19.147447 80.718 158.8514
19.286197 80.681 158.8742
19.425953 80.645 158.9005
19.566721 80.609 158.9294
19.708510 80.574 158.9599
19.851326 80.541 158.9912
19.995177 80.507 159.0223
20.140070 80.475 159.0527
20.286013 80.443 159.0822
20.433014 80.411 159.1110
20.581080 80.379 159.1400
20.730219 80.347 159.1703
20.880439 80.315 159.2034
21.031747 80.283 159.2409
21.184152 80.251 159.2842
21.337661 80.219 159.3344
21.492282 80.187 159.3921
21.648024 80.157 159.4570
21.804895 80.128 159.5282
21.962902 80.100 159.6042
22.122054 80.075 159.6828
22.282360 80.050 159.7616
22.443827 80.028 159.8383
22.606464 80.007 159.9109
22.770280 79.987 159.9782
22.935283 79.968 160.0394
23.101481 79.949 160.0948
23.268884 79.931 160.1452
23.437500 79.913 160.1915
23.607338 79.895 160.2352
23.778406 79.877 160.2770
23.950714 79.860 160.3177
24.124271 79.843 160.3572
24.299086 79.826 160.3950
24.475167 79.810 160.4300
24.652524 79.795 160.4613
24.831166 79.780 160.4880
25.011103 79.765 160.5095
25.192344 79.750 160.5259
25.374898 79.736 160.5378
25.558775 79.720 160.5459
25.743984 79.705 160.5513
25.930536 79.689 160.5547
26.118439 79.673 160.5565
26.307704 79.657 160.5566
26.498341 79.641 160.5546
26.690359 79.625 160.5504
26.883768 79.608 160.5441
27.078579 79.590 160.5369
27.274801 79.571 160.5310
27.472446 79.552 160.5295
27.671522 79.531 160.5361
27.872042 79.510 160.5543
28.074014 79.489 160.5863
28.277450 79.470 160.6323
28.482360 79.453 160.6900
28.688755 79.439 160.7543
28.896645 79.428 160.8182
29.106042 79.420 160.8741
29.316957 79.416 160.9148
29.529400 79.413 160.9352
29.743382 79.410 160.9336
29.958915 79.407 160.9115
30.176009 79.402 160.8734
30.394677 79.395 160.8258
30.614929 79.386 160.7758
30.836778 79.374 160.7292
31.060234 79.362 160.6898
31.285309 79.349 160.6588
31.512015 79.336 160.6347
31.740364 79.325 160.6144
31.970368 79.314 160.5943
32.202039 79.304 160.5712
32.435388 79.295 160.5432
32.670428 79.285 160.5099
32.907171 79.275 160.4721
33.145630 79.265 160.4311
33.385817 79.254 160.3882
33.627745 79.243 160.3441
33.871425 79.231 160.2992
34.116871 79.219 160.2531
34.364096 79.207 160.2057
34.613113 79.194 160.1569
34.863934 79.181 160.1074
35.116572 79.167 160.0579
35.371041 79.153 160.0093
35.627354 79.139 159.9622
35.885525 79.124 159.9166
36.145566 79.109 159.8719
36.407492 79.095 159.8269
36.671316 79.080 159.7807
36.937051 79.065 159.7326
37.204712 79.051 159.6825
37.474313 79.035 159.6309
37.745867 79.020 159.5784
38.019389 79.004 159.5258
38.294893 78.987 159.4736
38.572394 78.971 159.4220
38.851905 78.954 159.3708
39.133442 78.938 159.3196
39.417019 78.921 159.2681
39.702651 78.905 159.2161
39.990353 78.888 159.1637
40.280140 78.872 159.1107
40.572026 78.855 159.0570
40.866028 78.839 159.0025
41.162160 78.822 158.9467
41.460438 78.806 158.8892
41.760877 78.789 158.8300
42.063494 78.772 158.7694
42.368303 78.755 158.7079
42.675322 78.738 158.6461
42.984565 78.720 158.5841
43.296048 78.702 158.5221
43.609789 78.684 158.4594
43.925804 78.666 158.3959
44.244108 78.647 158.3315
44.564719 78.627 158.2672
44.887654 78.607 158.2047
45.212928 78.586 158.1457
45.540560 78.564 158.0917
45.870565 78.543 158.0431
46.202962 78.521 157.9992
46.537768 78.500 157.9585
46.875000 78.479 157.9191
47.214676 78.458 157.8797
47.556813 78.437 157.8395
47.901429 78.417 157.7982
48.248542 78.396 157.7560
48.598171 78.375 157.7128
48.950334 78.353 157.6689
49.305048 78.332 157.6244
49.662333 78.309 157.5795
50.022206 78.287 157.5345
50.384688 78.264 157.4902
50.749796 78.241 157.4468
51.117550 78.218 157.4045
51.487969 78.194 157.3633
51.861072 78.171 157.3231
52.236879 78.147 157.2838
52.615409 78.124 157.2451
52.996681 78.100 157.2071
53.380717 78.076 157.1695
53.767536 78.053 157.1322
54.157158 78.029 157.0953
54.549603 78.005 157.0594
54.944892 77.981 157.0245
55.343045 77.957 156.9908
55.744084 77.933 156.9575
56.148028 77.908 156.9238
56.554900 77.884 156.8894
56.964720 77.859 156.8555
57.377510 77.833 156.8246
57.793291 77.807 156.7998
58.212085 77.780 156.7828
58.633914 77.754 156.7726
59.058799 77.729 156.7657
59.486764 77.706 156.7574
59.917829 77.682 156.7450
60.352019 77.659 156.7282
60.789354 77.635 156.7092
61.229859 77.611 156.6910
61.673556 77.587 156.6758
62.120468 77.562 156.6642
62.570618 77.537 156.6562
63.024031 77.513 156.6517
63.480729 77.489 156.6506
63.940736 77.464 156.6532
64.404077 77.440 156.6598
64.870776 77.416 156.6708
65.340856 77.392 156.6865
65.814343 77.368 156.7059
66.291261 77.346 156.7253
66.771635 77.324 156.7383
67.255489 77.303 156.7387
67.742850 77.280 156.7245
68.233743 77.256 156.7002
68.728193 77.228 156.6740
69.226226 77.199 156.6532
69.727867 77.169 156.6411
70.233144 77.138 156.6365
70.742083 77.108 156.6372
71.254709 77.078 156.6410
71.771050 77.049 156.6467
72.291132 77.021 156.6530
72.814984 76.994 156.6589
73.342631 76.968 156.6642
73.874102 76.941 156.6703
74.409424 76.915 156.6787
74.948626 76.889 156.6909
75.491734 76.864 156.7071
76.038779 76.838 156.7272
76.589787 76.812 156.7512
77.144788 76.786 156.7789
77.703811 76.761 156.8096
78.266885 76.735 156.8416
78.834039 76.709 156.8728
79.405303 76.684 156.9019
79.980706 76.658 156.9290
80.560280 76.632 156.9548
81.144053 76.606 156.9804
81.732056 76.579 157.0065
82.324320 76.553 157.0337
82.920876 76.527 157.0629
83.521755 76.502 157.0947
84.126988 76.477 157.1293
84.736607 76.452 157.1666
85.350643 76.427 157.2063
85.969129 76.402 157.2486
86.592097 76.376 157.2945
87.219579 76.350 157.3452
87.851608 76.324 157.4017
88.488217 76.298 157.4636
89.129439 76.273 157.5278
89.775308 76.248 157.5887
90.425856 76.224 157.6409
91.081119 76.200 157.6819
91.741131 76.175 157.7145
92.405925 76.149 157.7440
