* Measurement data measured by REW V5.31.3
* Source: Headset (CX31993 HIFI AUDIO), MICROPHONE (Master Volume), R, volume: 0.400
* Format: 256k Log Swept Sine, 1 sweep at -11.9 dBFS with no timing reference
* Dated: 07 7, 25 1:16:14 PM
* REW Settings:
*  C-weighting compensation: Off
*  Target level: 75.0 dB
* Note: ; 
* Measurement: Senheiser IE 200 BT20 g L
* Smoothing: 1/12 octave
* Frequency Step: 96 ppo
* Start Frequency: 0.36621094 Hz
*
* Freq(Hz) SPL(dB) Phase(degrees)
0.366211 32.663 -92.4379
0.368865 32.660 -92.5176
0.371538 32.655 -92.6379
0.374230 32.650 -92.7904
0.376942 32.644 -92.9681
0.379673 32.637 -93.1658
0.382424 32.630 -93.3801
0.385196 32.623 -93.6089
0.387987 32.616 -93.8510
0.390798 32.609 -94.1058
0.393630 32.602 -94.3731
0.396483 32.594 -94.6527
0.399356 32.587 -94.9447
0.402250 32.579 -95.2491
0.405165 32.572 -95.5660
0.408101 32.564 -95.8955
0.411058 32.556 -96.2376
0.414037 32.549 -96.5925
0.417037 32.541 -96.9602
0.420059 32.533 -97.3409
0.423103 32.525 -97.7345
0.426169 32.517 -98.1411
0.429257 32.509 -98.5609
0.432368 32.501 -98.9938
0.435501 32.493 -99.4399
0.438656 32.485 -99.8992
0.441835 32.476 -100.3718
0.445037 32.468 -100.8576
0.448262 32.460 -101.3567
0.451510 32.451 -101.8691
0.454782 32.443 -102.3947
0.458077 32.434 -102.9335
0.461397 32.425 -103.4856
0.464740 32.417 -104.0508
0.468108 32.408 -104.6292
0.471500 32.399 -105.2206
0.474917 32.390 -105.8249
0.478358 32.381 -106.4422
0.481825 32.372 -107.0724
0.485316 32.363 -107.7152
0.488833 32.354 -108.3707
0.492375 32.345 -109.0387
0.495943 32.336 -109.7191
0.499537 32.326 -110.4117
0.503157 32.317 -111.1166
0.506803 32.308 -111.8334
0.510475 32.298 -112.5622
0.514175 32.288 -113.3026
0.517900 32.279 -114.0547
0.521653 32.269 -114.8183
0.525434 32.259 -115.5932
0.529241 32.249 -116.3793
0.533076 32.239 -117.1766
0.536939 32.229 -117.9847
0.540830 32.219 -118.8038
0.544749 32.209 -119.6335
0.548696 32.199 -120.4740
0.552673 32.188 -121.3251
0.556677 32.178 -122.1867
0.560711 32.167 -123.0588
0.564774 32.157 -123.9415
0.568867 32.146 -124.8347
0.572989 32.136 -125.7385
0.577141 32.125 -126.6530
0.581324 32.114 -127.5782
0.585536 32.103 -128.5145
0.589779 32.092 -129.4618
0.594053 32.081 -130.4206
0.598358 32.070 -131.3911
0.602694 32.058 -132.3737
0.607061 32.047 -133.3688
0.611460 32.036 -134.3768
0.615891 32.024 -135.3984
0.620354 32.013 -136.4342
0.624849 32.001 -137.4848
0.629377 31.989 -138.5512
0.633938 31.977 -139.6341
0.638532 31.965 -140.7346
0.643159 31.953 -141.8539
0.647819 31.941 -142.9932
0.652514 31.929 -144.1538
0.657242 31.917 -145.3373
0.662005 31.904 -146.5453
0.666802 31.892 -147.7798
0.671634 31.879 -149.0427
0.676501 31.867 -150.3362
0.681403 31.854 -151.6628
0.686341 31.842 -153.0252
0.691314 31.829 -154.4263
0.696324 31.817 -155.8693
0.701370 31.805 -157.3577
0.706452 31.795 -158.8954
0.711571 31.787 -160.4866
0.716728 31.783 -162.1360
0.721921 31.785 -163.8483
0.727153 31.797 -165.6286
0.732422 31.820 -167.4813
0.737729 31.858 -169.4100
0.743075 31.909 -171.4165
0.748460 31.971 -173.5007
0.753883 32.044 -175.6603
0.759346 32.124 -177.8913
0.764849 32.210 179.8119
0.770391 32.303 177.4562
0.775974 32.401 175.0495
0.781597 32.504 172.6006
0.787261 32.612 170.1190
0.792966 32.724 167.6147
0.798712 32.842 165.0977
0.804500 32.964 162.5781
0.810329 33.090 160.0657
0.816201 33.222 157.5699
0.822116 33.357 155.0992
0.828073 33.498 152.6615
0.834074 33.642 150.2634
0.840118 33.791 147.9107
0.846206 33.945 145.6081
0.852338 34.102 143.3593
0.858514 34.264 141.1669
0.864735 34.430 139.0325
0.871001 34.599 136.9571
0.877313 34.773 134.9406
0.883670 34.950 132.9825
0.890074 35.131 131.0818
0.896524 35.315 129.2369
0.903020 35.503 127.4458
0.909564 35.694 125.7063
0.916155 35.888 124.0161
0.922794 36.086 122.3725
0.929481 36.286 120.7729
0.936216 36.488 119.2146
0.943000 36.694 117.6949
0.949834 36.901 116.2112
0.956717 37.111 114.7606
0.963649 37.323 113.3407
0.970632 37.537 111.9490
0.977666 37.752 110.5829
0.984750 37.968 109.2402
0.991886 38.186 107.9185
0.999074 38.404 106.6159
1.006314 38.624 105.3301
1.013606 38.843 104.0593
1.020951 39.063 102.8017
1.028349 39.282 101.5555
1.035801 39.501 100.3190
1.043307 39.719 99.0909
1.050867 39.937 97.8699
1.058482 40.153 96.6549
1.066152 40.367 95.4451
1.073878 40.581 94.2403
1.081660 40.793 93.0409
1.089498 41.004 91.8481
1.097393 41.215 90.6641
1.105345 41.426 89.4919
1.113355 41.637 88.3350
1.121423 41.851 87.1964
1.129549 42.066 86.0782
1.137734 42.284 84.9823
1.145979 42.504 83.9094
1.154283 42.726 82.8600
1.162647 42.951 81.8342
1.171072 43.178 80.8316
1.179558 43.407 79.8519
1.188106 43.638 78.8944
1.196715 43.872 77.9584
1.205387 44.107 77.0432
1.214122 44.344 76.1478
1.222920 44.583 75.2714
1.231782 44.823 74.4129
1.240708 45.065 73.5715
1.249699 45.307 72.7461
1.258754 45.551 71.9358
1.267876 45.796 71.1394
1.277063 46.042 70.3560
1.286318 46.289 69.5845
1.295639 46.536 68.8241
1.305027 46.783 68.0736
1.314484 47.030 67.3322
1.324009 47.278 66.5987
1.333604 47.525 65.8723
1.343268 47.771 65.1521
1.353002 48.017 64.4371
1.362806 48.262 63.7265
1.372681 48.505 63.0192
1.382628 48.747 62.3146
1.392647 48.988 61.6117
1.402739 49.227 60.9099
1.412904 49.463 60.2083
1.423142 49.697 59.5066
1.433455 49.929 58.8044
1.443843 50.158 58.1017
1.454305 50.384 57.3991
1.464844 50.608 56.6974
1.475459 50.828 55.9980
1.486150 51.046 55.3023
1.496920 51.262 54.6114
1.507767 51.475 53.9260
1.518693 51.686 53.2467
1.529698 51.894 52.5734
1.540783 52.100 51.9062
1.551948 52.305 51.2447
1.563194 52.507 50.5886
1.574521 52.707 49.9374
1.585931 52.906 49.2908
1.597423 53.102 48.6483
1.608999 53.297 48.0094
1.620658 53.490 47.3735
1.632402 53.682 46.7401
1.644232 53.873 46.1088
1.656146 54.062 45.4789
1.668147 54.250 44.8499
1.680235 54.437 44.2212
1.692411 54.623 43.5923
1.704675 54.808 42.9626
1.717028 54.992 42.3315
1.729470 55.176 41.6985
1.742003 55.360 41.0630
1.754626 55.544 40.4245
1.767341 55.727 39.7825
1.780147 55.910 39.1364
1.793047 56.094 38.4860
1.806040 56.277 37.8311
1.819128 56.460 37.1717
1.832310 56.643 36.5082
1.845587 56.825 35.8413
1.858961 57.007 35.1718
1.872432 57.187 34.5004
1.886001 57.365 33.8279
1.899667 57.543 33.1550
1.913433 57.718 32.4823
1.927299 57.893 31.8101
1.941265 58.066 31.1387
1.955332 58.237 30.4685
1.969501 58.407 29.7996
1.983773 58.576 29.1321
1.998148 58.744 28.4660
2.012627 58.911 27.8015
2.027212 59.076 27.1383
2.041902 59.241 26.4765
2.056698 59.405 25.8158
2.071602 59.568 25.1561
2.086614 59.730 24.4971
2.101734 59.892 23.8385
2.116964 60.053 23.1799
2.132304 60.214 22.5211
2.147756 60.375 21.8615
2.163320 60.535 21.2006
2.178996 60.695 20.5381
2.194786 60.854 19.8734
2.210690 61.012 19.2063
2.226710 61.169 18.5365
2.242845 61.326 17.8641
2.259098 61.481 17.1895
2.275468 61.635 16.5130
2.291957 61.787 15.8351
2.308566 61.938 15.1564
2.325295 62.088 14.4771
2.342145 62.237 13.7979
2.359117 62.385 13.1190
2.376212 62.532 12.4409
2.393431 62.678 11.7638
2.410775 62.822 11.0879
2.428244 62.966 10.4133
2.445840 63.110 9.7402
2.463564 63.252 9.0687
2.481416 63.394 8.3986
2.499397 63.535 7.7297
2.517509 63.676 7.0616
2.535752 63.816 6.3940
2.554127 63.955 5.7260
2.572635 64.094 5.0569
2.591277 64.231 4.3861
2.610055 64.368 3.7131
2.628968 64.503 3.0377
2.648019 64.638 2.3602
2.667208 64.771 1.6809
2.686535 64.902 1.0005
2.706003 65.033 0.3195
2.725612 65.163 -0.3617
2.745363 65.291 -1.0422
2.765257 65.419 -1.7216
2.785295 65.546 -2.3994
2.805478 65.671 -3.0752
2.825808 65.797 -3.7485
2.846285 65.921 -4.4193
2.866910 66.045 -5.0874
2.887685 66.168 -5.7531
2.908611 66.290 -6.4167
2.929688 66.412 -7.0792
2.950917 66.533 -7.7413
2.972301 66.652 -8.4037
2.993839 66.771 -9.0671
3.015534 66.889 -9.7314
3.037386 67.005 -10.3965
3.059396 67.120 -11.0620
3.081565 67.235 -11.7273
3.103896 67.348 -12.3918
3.126388 67.461 -13.0551
3.149043 67.572 -13.7164
3.171862 67.683 -14.3752
3.194847 67.793 -15.0310
3.217998 67.903 -15.6836
3.241317 68.012 -16.3328
3.264805 68.120 -16.9788
3.288463 68.227 -17.6221
3.312293 68.334 -18.2632
3.336295 68.440 -18.9030
3.360471 68.545 -19.5420
3.384822 68.649 -20.1805
3.409350 68.753 -20.8185
3.434056 68.855 -21.4557
3.458940 68.956 -22.0918
3.484005 69.057 -22.7262
3.509252 69.157 -23.3585
3.534681 69.256 -23.9883
3.560295 69.355 -24.6150
3.586094 69.453 -25.2383
3.612081 69.551 -25.8582
3.638255 69.648 -26.4746
3.664620 69.745 -27.0878
3.691175 69.841 -27.6984
3.717923 69.937 -28.3068
3.744864 70.032 -28.9135
3.772001 70.126 -29.5184
3.799335 70.220 -30.1219
3.826866 70.312 -30.7236
3.854597 70.405 -31.3235
3.882529 70.497 -31.9211
3.910664 70.588 -32.5165
3.939002 70.679 -33.1093
3.967546 70.770 -33.6994
3.996296 70.860 -34.2868
4.025255 70.950 -34.8716
4.054423 71.040 -35.4541
4.083804 71.130 -36.0344
4.113396 71.219 -36.6130
4.143204 71.307 -37.1901
4.173227 71.395 -37.7655
4.203468 71.483 -38.3395
4.233928 71.570 -38.9121
4.264609 71.657 -39.4833
4.295512 71.744 -40.0530
4.326639 71.831 -40.6213
4.357992 71.917 -41.1882
4.389572 72.003 -41.7538
4.421380 72.089 -42.3182
4.453419 72.175 -42.8816
4.485691 72.260 -43.4442
4.518196 72.346 -44.0061
4.550936 72.430 -44.5674
4.583914 72.515 -45.1282
4.617131 72.599 -45.6885
4.650589 72.683 -46.2484
4.684289 72.767 -46.8081
4.718233 72.850 -47.3676
4.752424 72.934 -47.9271
4.786862 73.017 -48.4868
4.821549 73.099 -49.0468
4.856488 73.182 -49.6070
4.891680 73.264 -50.1676
4.927127 73.346 -50.7286
4.962831 73.427 -51.2899
4.998794 73.508 -51.8516
5.035017 73.589 -52.4136
5.071503 73.669 -52.9760
5.108253 73.750 -53.5391
5.145270 73.829 -54.1028
5.182555 73.908 -54.6674
5.220110 73.987 -55.2328
5.257937 74.066 -55.7992
5.296038 74.143 -56.3663
5.334415 74.221 -56.9340
5.373071 74.298 -57.5020
5.412006 74.374 -58.0703
5.451224 74.450 -58.6389
5.490725 74.526 -59.2079
5.530514 74.601 -59.7773
5.570590 74.675 -60.3473
5.610957 74.749 -60.9178
5.651616 74.822 -61.4888
5.692570 74.895 -62.0599
5.733821 74.967 -62.6309
5.775370 75.039 -63.2014
5.817221 75.110 -63.7715
5.859375 75.180 -64.3409
5.901834 75.250 -64.9100
5.944602 75.320 -65.4788
5.987679 75.388 -66.0470
6.031068 75.456 -66.6146
6.074771 75.524 -67.1814
6.118792 75.591 -67.7469
6.163131 75.657 -68.3110
6.207792 75.723 -68.8735
6.252776 75.788 -69.4344
6.298086 75.853 -69.9937
6.343725 75.917 -70.5515
6.389694 75.981 -71.1077
6.435996 76.044 -71.6619
6.482634 76.107 -72.2141
6.529610 76.169 -72.7640
6.576926 76.231 -73.3115
6.624585 76.292 -73.8564
6.672590 76.353 -74.3990
6.720942 76.414 -74.9392
6.769645 76.475 -75.4769
6.818700 76.535 -76.0122
6.868111 76.594 -76.5448
6.917881 76.654 -77.0748
6.968010 76.713 -77.6021
7.018504 76.773 -78.1266
7.069362 76.832 -78.6487
7.120590 76.891 -79.1683
7.172189 76.950 -79.6855
7.224161 77.009 -80.2006
7.276511 77.067 -80.7136
7.329239 77.126 -81.2246
7.382350 77.185 -81.7338
7.435845 77.244 -82.2412
7.489729 77.303 -82.7472
7.544002 77.362 -83.2522
7.598669 77.421 -83.7564
7.653732 77.481 -84.2602
7.709194 77.540 -84.7638
7.765058 77.600 -85.2675
7.821327 77.659 -85.7715
7.878004 77.719 -86.2761
7.935091 77.779 -86.7819
7.992592 77.839 -87.2892
8.050510 77.898 -87.7983
8.108847 77.958 -88.3095
8.167607 78.018 -88.8230
8.226793 78.077 -89.3390
8.286408 78.136 -89.8575
8.346454 78.195 -90.3789
8.406936 78.253 -90.9032
8.467856 78.311 -91.4305
8.529218 78.368 -91.9607
8.591024 78.424 -92.4935
8.653278 78.480 -93.0287
8.715983 78.534 -93.5658
8.779143 78.588 -94.1044
8.842760 78.640 -94.6442
8.906839 78.691 -95.1846
8.971381 78.741 -95.7249
9.036392 78.790 -96.2640
9.101873 78.837 -96.8010
9.167829 78.883 -97.3351
9.234263 78.927 -97.8653
9.301178 78.970 -98.3909
9.368578 79.011 -98.9108
9.436467 79.051 -99.4238
9.504847 79.090 -99.9288
9.573723 79.128 -100.4252
9.643099 79.166 -100.9120
9.712976 79.202 -101.3890
9.783361 79.238 -101.8557
9.854255 79.273 -102.3116
9.925663 79.308 -102.7566
9.997588 79.344 -103.1909
10.070035 79.380 -103.6150
10.143007 79.416 -104.0298
10.216507 79.453 -104.4364
10.290540 79.491 -104.8358
10.365109 79.530 -105.2294
10.440219 79.570 -105.6188
10.515873 79.611 -106.0060
10.592076 79.654 -106.3932
10.668830 79.698 -106.7820
10.746141 79.742 -107.1743
10.824012 79.788 -107.5718
10.902447 79.834 -107.9761
10.981451 79.880 -108.3885
11.061027 79.927 -108.8104
11.141180 79.973 -109.2418
11.221913 80.018 -109.6827
11.303232 80.062 -110.1329
11.385140 80.104 -110.5916
11.467641 80.144 -111.0573
11.550741 80.182 -111.5282
11.634442 80.217 -112.0016
11.718750 80.250 -112.4749
11.803669 80.279 -112.9451
11.889203 80.306 -113.4092
11.975357 80.330 -113.8638
12.062136 80.352 -114.3055
12.149543 80.371 -114.7313
12.237583 80.389 -115.1389
12.326262 80.405 -115.5261
12.415583 80.421 -115.8917
12.505552 80.438 -116.2350
12.596172 80.455 -116.5563
12.687449 80.474 -116.8575
12.779387 80.496 -117.1412
12.871992 80.521 -117.4109
12.965268 80.549 -117.6710
13.059220 80.582 -117.9269
13.153852 80.619 -118.1849
13.249170 80.660 -118.4509
13.345179 80.705 -118.7308
13.441884 80.753 -119.0306
13.539289 80.805 -119.3553
13.637401 80.858 -119.7094
13.736223 80.913 -120.0955
13.835761 80.968 -120.5150
13.936021 81.022 -120.9685
14.037007 81.074 -121.4548
14.138725 81.123 -121.9714
14.241180 81.169 -122.5142
14.344377 81.210 -123.0787
14.448323 81.246 -123.6597
14.553021 81.278 -124.2511
14.658478 81.304 -124.8467
14.764700 81.326 -125.4409
14.871691 81.343 -126.0282
14.979457 81.356 -126.6042
15.088005 81.366 -127.1652
15.197339 81.374 -127.7087
15.307465 81.381 -128.2342
15.418389 81.387 -128.7418
15.530117 81.393 -129.2331
15.642655 81.400 -129.7109
15.756008 81.409 -130.1786
15.870182 81.419 -130.6403
15.985184 81.430 -131.0997
16.101019 81.443 -131.5603
16.217694 81.456 -132.0249
16.335214 81.470 -132.4950
16.453586 81.483 -132.9708
16.572815 81.496 -133.4512
16.692909 81.507 -133.9341
16.813872 81.517 -134.4157
16.935713 81.524 -134.8921
17.058436 81.531 -135.3588
17.182048 81.536 -135.8116
17.306556 81.540 -136.2471
17.431967 81.544 -136.6626
17.558286 81.550 -137.0576
17.685521 81.557 -137.4327
17.813677 81.568 -137.7909
17.942762 81.582 -138.1364
18.072783 81.600 -138.4749
18.203746 81.622 -138.8126
18.335658 81.648 -139.1563
18.468526 81.678 -139.5118
18.602356 81.711 -139.8839
18.737156 81.745 -140.2755
18.872934 81.779 -140.6876
19.009695 81.813 -141.1192
19.147447 81.845 -141.5671
19.286197 81.876 -142.0266
19.425953 81.903 -142.4921
19.566721 81.927 -142.9573
19.708510 81.949 -143.4166
19.851326 81.968 -143.8649
19.995177 81.986 -144.2990
20.140070 82.004 -144.7173
20.286013 82.021 -145.1204
20.433014 82.040 -145.5106
20.581080 82.060 -145.8921
20.730219 82.081 -146.2697
20.880439 82.104 -146.6488
21.031747 82.128 -147.0342
21.184152 82.153 -147.4299
21.337661 82.177 -147.8380
21.492282 82.199 -148.2588
21.648024 82.219 -148.6908
21.804895 82.235 -149.1305
21.962902 82.248 -149.5734
22.122054 82.257 -150.0138
22.282360 82.262 -150.4460
22.443827 82.263 -150.8644
22.606464 82.261 -151.2647
22.770280 82.256 -151.6435
22.935283 82.250 -151.9991
23.101481 82.244 -152.3315
23.268884 82.238 -152.6425
23.437500 82.232 -152.9348
23.607338 82.229 -153.2129
23.778406 82.227 -153.4816
23.950714 82.228 -153.7462
24.124271 82.230 -154.0117
24.299086 82.234 -154.2828
24.475167 82.240 -154.5631
24.652524 82.247 -154.8553
24.831166 82.253 -155.1605
25.011103 82.260 -155.4788
25.192344 82.265 -155.8087
25.374898 82.269 -156.1483
25.558775 82.272 -156.4944
25.743984 82.274 -156.8440
25.930536 82.274 -157.1943
26.118439 82.273 -157.5433
26.307704 82.272 -157.8898
26.498341 82.271 -158.2338
26.690359 82.270 -158.5764
26.883768 82.270 -158.9193
27.078579 82.270 -159.2643
27.274801 82.271 -159.6131
27.472446 82.271 -159.9665
27.671522 82.272 -160.3241
27.872042 82.272 -160.6843
28.074014 82.271 -161.0446
28.277450 82.269 -161.4018
28.482360 82.266 -161.7531
28.688755 82.263 -162.0960
28.896645 82.261 -162.4297
29.106042 82.259 -162.7545
29.316957 82.257 -163.0720
29.529400 82.258 -163.3851
29.743382 82.259 -163.6967
29.958915 82.261 -164.0095
30.176009 82.264 -164.3258
30.394677 82.267 -164.6464
30.614929 82.270 -164.9711
30.836778 82.272 -165.2990
31.060234 82.273 -165.6287
31.285309 82.273 -165.9589
31.512015 82.271 -166.2885
31.740364 82.269 -166.6170
31.970368 82.265 -166.9442
32.202039 82.261 -167.2701
32.435388 82.254 -167.5944
32.670428 82.247 -167.9164
32.907171 82.237 -168.2347
33.145630 82.226 -168.5473
33.385817 82.214 -168.8519
33.627745 82.200 -169.1464
33.871425 82.186 -169.4293
34.116871 82.172 -169.7003
34.364096 82.158 -169.9604
34.613113 82.146 -170.2124
34.863934 82.136 -170.4602
35.116572 82.128 -170.7087
35.371041 82.122 -170.9633
35.627354 82.118 -171.2289
35.885525 82.115 -171.5094
36.145566 82.113 -171.8071
36.407492 82.110 -172.1223
36.671316 82.106 -172.4528
36.937051 82.100 -172.7944
37.204712 82.092 -173.1415
37.474313 82.082 -173.4874
37.745867 82.069 -173.8260
38.019389 82.055 -174.1525
38.294893 82.040 -174.4639
38.572394 82.026 -174.7597
38.851905 82.012 -175.0419
39.133442 81.999 -175.3136
39.417019 81.988 -175.5788
39.702651 81.978 -175.8409
39.990353 81.969 -176.1025
40.280140 81.960 -176.3647
40.572026 81.951 -176.6278
40.866028 81.942 -176.8914
41.162160 81.932 -177.1547
41.460438 81.920 -177.4163
41.760877 81.908 -177.6741
42.063494 81.893 -177.9249
42.368303 81.877 -178.1650
42.675322 81.861 -178.3914
42.984565 81.844 -178.6025
43.296048 81.828 -178.8010
43.609789 81.814 -178.9932
43.925804 81.802 -179.1884
44.244108 81.792 -179.3967
44.564719 81.782 -179.6254
44.887654 81.771 -179.8766
45.212928 81.758 179.8534
45.540560 81.741 179.5728
45.870565 81.720 179.2912
46.202962 81.696 179.0168
46.537768 81.671 178.7539
46.875000 81.645 178.5024
47.214676 81.619 178.2599
47.556813 81.594 178.0230
47.901429 81.570 177.7898
48.248542 81.546 177.5598
48.598171 81.524 177.3334
48.950334 81.502 177.1110
49.305048 81.482 176.8915
49.662333 81.463 176.6731
50.022206 81.446 176.4536
50.384688 81.429 176.2310
50.749796 81.413 176.0052
51.117550 81.397 175.7775
51.487969 81.380 175.5504
51.861072 81.362 175.3274
52.236879 81.343 175.1114
52.615409 81.323 174.9042
52.996681 81.302 174.7059
53.380717 81.280 174.5152
53.767536 81.257 174.3302
54.157158 81.232 174.1495
54.549603 81.207 173.9722
54.944892 81.180 173.7980
55.343045 81.151 173.6260
55.744084 81.122 173.4554
56.148028 81.092 173.2853
56.554900 81.061 173.1155
56.964720 81.030 172.9460
57.377510 81.001 172.7751
57.793291 80.973 172.5990
58.212085 80.948 172.4112
58.633914 80.926 172.2062
59.058799 80.905 171.9817
59.486764 80.884 171.7404
59.917829 80.864 171.4882
60.352019 80.844 171.2323
60.789354 80.823 170.9783
61.229859 80.803 170.7299
61.673556 80.783 170.4888
62.120468 80.762 170.2567
62.570618 80.740 170.0359
63.024031 80.716 169.8298
63.480729 80.689 169.6418
63.940736 80.661 169.4723
64.404077 80.631 169.3181
64.870776 80.598 169.1763
65.340856 80.561 169.0494
65.814343 80.522 168.9457
66.291261 80.482 168.8711
66.771635 80.445 168.8172
67.255489 80.414 168.7583
67.742850 80.388 168.6640
68.233743 80.363 168.5177
68.728193 80.336 168.3262
69.226226 80.305 168.1128
69.727867 80.271 167.9028
70.233144 80.237 167.7133
70.742083 80.204 167.5505
71.254709 80.177 167.4097
71.771050 80.156 167.2769
72.291132 80.139 167.1353
72.814984 80.125 166.9755
73.342631 80.110 166.8008
73.874102 80.093 166.6235
74.409424 80.073 166.4548
74.948626 80.051 166.2985
75.491734 80.028 166.1517
76.038779 80.003 166.0105
76.589787 79.976 165.8717
77.144788 79.948 165.7346
77.703811 79.919 165.5997
78.266885 79.889 165.4678
78.834039 79.858 165.3383
79.405303 79.827 165.2090
79.980706 79.794 165.0803
80.560280 79.760 164.9559
81.144053 79.724 164.8423
81.732056 79.686 164.7448
82.324320 79.647 164.6636
82.920876 79.609 164.5941
83.521755 79.571 164.5292
84.126988 79.534 164.4616
84.736607 79.497 164.3857
85.350643 79.460 164.2967
85.969129 79.424 164.1912
86.592097 79.388 164.0684
87.219579 79.353 163.9308
87.851608 79.317 163.7833
88.488217 79.281 163.6323
89.129439 79.245 163.4861
89.775308 79.208 163.3533
