* Measurement data measured by REW V5.31.3
* Source: Headset (CX31993 HIFI AUDIO), MICROPHONE (Master Volume), R, volume: 0.250
* Format: 256k Log Swept Sine, 1 sweep at -12.0 dBFS with no timing reference
* Dated: 03 3, 25 11:36:14 AM
* REW Settings:
*  C-weighting compensation: Off
*  Target level: 75.0 dB
* Note: ; 
* Measurement: SGOR Luna 300 400 R
* Smoothing: 1/12 octave
* Frequency Step: 96 ppo
* Start Frequency: 0.36621094 Hz
*
* Freq(Hz) SPL(dB) Phase(degrees)
0.366211 30.971 -34.8101
0.368865 30.969 -34.8240
0.371538 30.966 -34.8452
0.374230 30.962 -34.8723
0.376942 30.958 -34.9043
0.379673 30.954 -34.9404
0.382424 30.949 -34.9799
0.385196 30.944 -35.0227
0.387987 30.940 -35.0684
0.390798 30.935 -35.1171
0.393630 30.930 -35.1686
0.396483 30.925 -35.2229
0.399356 30.920 -35.2801
0.402250 30.915 -35.3400
0.405165 30.910 -35.4027
0.408101 30.905 -35.4682
0.411058 30.900 -35.5365
0.414037 30.895 -35.6076
0.417037 30.890 -35.6814
0.420059 30.884 -35.7579
0.423103 30.879 -35.8373
0.426169 30.874 -35.9193
0.429257 30.869 -36.0040
0.432368 30.863 -36.0915
0.435501 30.858 -36.1816
0.438656 30.852 -36.2743
0.441835 30.847 -36.3697
0.445037 30.841 -36.4677
0.448262 30.836 -36.5682
0.451510 30.830 -36.6712
0.454782 30.825 -36.7768
0.458077 30.819 -36.8847
0.461397 30.813 -36.9951
0.464740 30.807 -37.1078
0.468108 30.802 -37.2229
0.471500 30.796 -37.3401
0.474917 30.790 -37.4595
0.478358 30.784 -37.5811
0.481825 30.778 -37.7047
0.485316 30.772 -37.8303
0.488833 30.766 -37.9578
0.492375 30.760 -38.0871
0.495943 30.754 -38.2182
0.499537 30.747 -38.3508
0.503157 30.741 -38.4851
0.506803 30.735 -38.6207
0.510475 30.729 -38.7577
0.514175 30.722 -38.8959
0.517900 30.716 -39.0352
0.521653 30.709 -39.1755
0.525434 30.703 -39.3166
0.529241 30.696 -39.4584
0.533076 30.690 -39.6008
0.536939 30.683 -39.7435
0.540830 30.676 -39.8865
0.544749 30.670 -40.0295
0.548696 30.663 -40.1725
0.552673 30.656 -40.3151
0.556677 30.649 -40.4572
0.560711 30.642 -40.5986
0.564774 30.635 -40.7391
0.568867 30.628 -40.8784
0.572989 30.621 -41.0164
0.577141 30.614 -41.1528
0.581324 30.607 -41.2873
0.585536 30.599 -41.4196
0.589779 30.592 -41.5496
0.594053 30.585 -41.6769
0.598358 30.577 -41.8011
0.602694 30.570 -41.9221
0.607061 30.562 -42.0395
0.611460 30.555 -42.1529
0.615891 30.547 -42.2620
0.620354 30.539 -42.3664
0.624849 30.532 -42.4658
0.629377 30.524 -42.5597
0.633938 30.516 -42.6478
0.638532 30.508 -42.7296
0.643159 30.500 -42.8047
0.647819 30.492 -42.8727
0.652514 30.484 -42.9330
0.657242 30.476 -42.9851
0.662005 30.467 -43.0287
0.666802 30.459 -43.0630
0.671634 30.451 -43.0877
0.676501 30.443 -43.1020
0.681403 30.434 -43.1055
0.686341 30.426 -43.0975
0.691314 30.417 -43.0774
0.696324 30.408 -43.0447
0.701370 30.400 -42.9986
0.706452 30.391 -42.9388
0.711571 30.382 -42.8647
0.716728 30.374 -42.7762
0.721921 30.365 -42.6733
0.727153 30.356 -42.5566
0.732422 30.347 -42.4269
0.737729 30.338 -42.2856
0.743075 30.329 -42.1341
0.748460 30.319 -41.9735
0.753883 30.308 -41.8044
0.759346 30.297 -41.6274
0.764849 30.284 -41.4423
0.770391 30.270 -41.2491
0.775974 30.255 -41.0476
0.781597 30.240 -40.8373
0.787261 30.223 -40.6179
0.792966 30.205 -40.3889
0.798712 30.187 -40.1498
0.804500 30.168 -39.9001
0.810329 30.148 -39.6394
0.816201 30.127 -39.3670
0.822116 30.106 -39.0824
0.828073 30.084 -38.7851
0.834074 30.062 -38.4745
0.840118 30.040 -38.1500
0.846206 30.017 -37.8110
0.852338 29.995 -37.4569
0.858514 29.972 -37.0871
0.864735 29.949 -36.7010
0.871001 29.926 -36.2979
0.877313 29.904 -35.8772
0.883670 29.882 -35.4384
0.890074 29.860 -34.9807
0.896524 29.839 -34.5037
0.903020 29.819 -34.0068
0.909564 29.800 -33.4894
0.916155 29.782 -32.9510
0.922794 29.765 -32.3911
0.929481 29.749 -31.8094
0.936216 29.735 -31.2053
0.943000 29.722 -30.5787
0.949834 29.711 -29.9292
0.956717 29.703 -29.2567
0.963649 29.696 -28.5612
0.970632 29.692 -27.8426
0.977666 29.690 -27.1011
0.984750 29.691 -26.3370
0.991886 29.696 -25.5506
0.999074 29.703 -24.7424
1.006314 29.714 -23.9131
1.013606 29.729 -23.0635
1.020951 29.747 -22.1945
1.028349 29.770 -21.3074
1.035801 29.797 -20.4032
1.043307 29.829 -19.4834
1.050867 29.866 -18.5496
1.058482 29.909 -17.6032
1.066152 29.957 -16.6458
1.073878 30.011 -15.6790
1.081660 30.071 -14.7041
1.089498 30.138 -13.7220
1.097393 30.212 -12.7333
1.105345 30.292 -11.7384
1.113355 30.380 -10.7375
1.121423 30.476 -9.7313
1.129549 30.578 -8.7210
1.137734 30.688 -7.7082
1.145979 30.806 -6.6949
1.154283 30.930 -5.6835
1.162647 31.062 -4.6763
1.171072 31.200 -3.6758
1.179558 31.345 -2.6843
1.188106 31.496 -1.7043
1.196715 31.654 -0.7381
1.205387 31.817 0.2123
1.214122 31.987 1.1448
1.222920 32.162 2.0575
1.231782 32.343 2.9486
1.240708 32.528 3.8165
1.249699 32.719 4.6598
1.258754 32.914 5.4772
1.267876 33.113 6.2675
1.277063 33.316 7.0297
1.286318 33.523 7.7629
1.295639 33.733 8.4664
1.305027 33.946 9.1396
1.314484 34.161 9.7819
1.324009 34.379 10.3929
1.333604 34.598 10.9723
1.343268 34.818 11.5200
1.353002 35.039 12.0357
1.362806 35.260 12.5195
1.372681 35.481 12.9714
1.382628 35.702 13.3914
1.392647 35.921 13.7798
1.402739 36.139 14.1368
1.412904 36.354 14.4631
1.423142 36.568 14.7592
1.433455 36.778 15.0264
1.443843 36.986 15.2662
1.454305 37.192 15.4810
1.464844 37.396 15.6735
1.475459 37.598 15.8470
1.486150 37.800 16.0045
1.496920 38.003 16.1484
1.507767 38.206 16.2803
1.518693 38.410 16.4009
1.529698 38.615 16.5108
1.540783 38.821 16.6100
1.551948 39.028 16.6983
1.563194 39.236 16.7754
1.574521 39.445 16.8413
1.585931 39.655 16.8955
1.597423 39.866 16.9379
1.608999 40.077 16.9681
1.620658 40.289 16.9859
1.632402 40.501 16.9911
1.644232 40.713 16.9835
1.656146 40.926 16.9629
1.668147 41.139 16.9290
1.680235 41.351 16.8818
1.692411 41.563 16.8210
1.704675 41.775 16.7465
1.717028 41.986 16.6581
1.729470 42.197 16.5558
1.742003 42.407 16.4395
1.754626 42.616 16.3090
1.767341 42.823 16.1645
1.780147 43.029 16.0061
1.793047 43.234 15.8343
1.806040 43.437 15.6495
1.819128 43.639 15.4529
1.832310 43.839 15.2458
1.845587 44.037 15.0297
1.858961 44.233 14.8062
1.872432 44.428 14.5764
1.886001 44.621 14.3412
1.899667 44.812 14.1011
1.913433 45.002 13.8564
1.927299 45.191 13.6070
1.941265 45.378 13.3530
1.955332 45.564 13.0942
1.969501 45.749 12.8306
1.983773 45.932 12.5620
1.998148 46.114 12.2881
2.012627 46.296 12.0089
2.027212 46.476 11.7242
2.041902 46.655 11.4336
2.056698 46.834 11.1371
2.071602 47.011 10.8344
2.086614 47.188 10.5253
2.101734 47.365 10.2095
2.116964 47.541 9.8870
2.132304 47.717 9.5575
2.147756 47.892 9.2211
2.163320 48.067 8.8777
2.178996 48.242 8.5275
2.194786 48.415 8.1711
2.210690 48.589 7.8089
2.226710 48.761 7.4416
2.242845 48.932 7.0699
2.259098 49.101 6.6942
2.275468 49.270 6.3149
2.291957 49.437 5.9324
2.308566 49.603 5.5467
2.325295 49.768 5.1580
2.342145 49.931 4.7663
2.359117 50.094 4.3717
2.376212 50.255 3.9742
2.393431 50.416 3.5738
2.410775 50.576 3.1703
2.428244 50.735 2.7639
2.445840 50.893 2.3543
2.463564 51.051 1.9414
2.481416 51.208 1.5253
2.499397 51.365 1.1057
2.517509 51.521 0.6826
2.535752 51.677 0.2558
2.554127 51.832 -0.1746
2.572635 51.987 -0.6085
2.591277 52.141 -1.0459
2.610055 52.294 -1.4865
2.628968 52.446 -1.9302
2.648019 52.597 -2.3767
2.667208 52.747 -2.8258
2.686535 52.895 -3.2773
2.706003 53.043 -3.7309
2.725612 53.190 -4.1866
2.745363 53.336 -4.6441
2.765257 53.481 -5.1034
2.785295 53.625 -5.5644
2.805478 53.769 -6.0269
2.825808 53.912 -6.4911
2.846285 54.055 -6.9568
2.866910 54.197 -7.4242
2.887685 54.339 -7.8932
2.908611 54.480 -8.3640
2.929688 54.621 -8.8367
2.950917 54.761 -9.3114
2.972301 54.900 -9.7881
2.993839 55.039 -10.2669
3.015534 55.176 -10.7477
3.037386 55.313 -11.2303
3.059396 55.448 -11.7146
3.081565 55.583 -12.2005
3.103896 55.717 -12.6879
3.126388 55.851 -13.1766
3.149043 55.983 -13.6666
3.171862 56.115 -14.1577
3.194847 56.247 -14.6499
3.217998 56.378 -15.1433
3.241317 56.509 -15.6379
3.264805 56.639 -16.1338
3.288463 56.768 -16.6311
3.312293 56.897 -17.1300
3.336295 57.025 -17.6307
3.360471 57.153 -18.1331
3.384822 57.280 -18.6374
3.409350 57.406 -19.1433
3.434056 57.531 -19.6508
3.458940 57.655 -20.1597
3.484005 57.779 -20.6699
3.509252 57.902 -21.1813
3.534681 58.025 -21.6937
3.560295 58.147 -22.2071
3.586094 58.268 -22.7215
3.612081 58.389 -23.2370
3.638255 58.510 -23.7536
3.664620 58.630 -24.2717
3.691175 58.749 -24.7913
3.717923 58.867 -25.3126
3.744864 58.985 -25.8357
3.772001 59.102 -26.3605
3.799335 59.218 -26.8869
3.826866 59.334 -27.4147
3.854597 59.449 -27.9438
3.882529 59.563 -28.4740
3.910664 59.677 -29.0051
3.939002 59.789 -29.5372
3.967546 59.902 -30.0702
3.996296 60.013 -30.6044
4.025255 60.124 -31.1399
4.054423 60.234 -31.6770
4.083804 60.344 -32.2159
4.113396 60.453 -32.7567
4.143204 60.560 -33.2993
4.173227 60.667 -33.8434
4.203468 60.774 -34.3887
4.233928 60.879 -34.9350
4.264609 60.984 -35.4818
4.295512 61.088 -36.0290
4.326639 61.191 -36.5765
4.357992 61.293 -37.1244
4.389572 61.395 -37.6729
4.421380 61.495 -38.2222
4.453419 61.595 -38.7727
4.485691 61.694 -39.3245
4.518196 61.792 -39.8774
4.550936 61.889 -40.4310
4.583914 61.985 -40.9850
4.617131 62.080 -41.5387
4.650589 62.174 -42.0918
4.684289 62.267 -42.6440
4.718233 62.360 -43.1951
4.752424 62.451 -43.7453
4.786862 62.542 -44.2949
4.821549 62.632 -44.8441
4.856488 62.720 -45.3931
4.891680 62.808 -45.9417
4.927127 62.895 -46.4895
4.962831 62.980 -47.0360
4.998794 63.065 -47.5807
5.035017 63.149 -48.1229
5.071503 63.232 -48.6625
5.108253 63.314 -49.1992
5.145270 63.396 -49.7332
5.182555 63.476 -50.2648
5.220110 63.556 -50.7941
5.257937 63.634 -51.3211
5.296038 63.712 -51.8455
5.334415 63.789 -52.3669
5.373071 63.865 -52.8848
5.412006 63.941 -53.3989
5.451224 64.015 -53.9087
5.490725 64.090 -54.4143
5.530514 64.163 -54.9157
5.570590 64.236 -55.4130
5.610957 64.308 -55.9064
5.651616 64.380 -56.3959
5.692570 64.451 -56.8813
5.733821 64.522 -57.3627
5.775370 64.592 -57.8396
5.817221 64.662 -58.3120
5.859375 64.732 -58.7798
5.901834 64.802 -59.2431
5.944602 64.871 -59.7019
5.987679 64.940 -60.1565
6.031068 65.009 -60.6072
6.074771 65.077 -61.0539
6.118792 65.146 -61.4970
6.163131 65.214 -61.9365
6.207792 65.283 -62.3725
6.252776 65.351 -62.8050
6.298086 65.420 -63.2343
6.343725 65.489 -63.6604
6.389694 65.557 -64.0837
6.435996 65.626 -64.5046
6.482634 65.695 -64.9234
6.529610 65.764 -65.3405
6.576926 65.834 -65.7561
6.624585 65.903 -66.1702
6.672590 65.973 -66.5832
6.720942 66.043 -66.9952
6.769645 66.113 -67.4065
6.818700 66.183 -67.8175
6.868111 66.254 -68.2285
6.917881 66.324 -68.6399
6.968010 66.395 -69.0518
7.018504 66.466 -69.4645
7.069362 66.537 -69.8781
7.120590 66.608 -70.2928
7.172189 66.680 -70.7088
7.224161 66.751 -71.1263
7.276511 66.822 -71.5457
7.329239 66.893 -71.9670
7.382350 66.965 -72.3905
7.435845 67.036 -72.8162
7.489729 67.107 -73.2442
7.544002 67.178 -73.6747
7.598669 67.249 -74.1077
7.653732 67.319 -74.5433
7.709194 67.390 -74.9818
7.765058 67.460 -75.4231
7.821327 67.530 -75.8672
7.878004 67.599 -76.3143
7.935091 67.669 -76.7642
7.992592 67.737 -77.2169
8.050510 67.806 -77.6725
8.108847 67.873 -78.1310
8.167607 67.941 -78.5923
8.226793 68.007 -79.0563
8.286408 68.074 -79.5227
8.346454 68.139 -79.9914
8.406936 68.204 -80.4622
8.467856 68.268 -80.9349
8.529218 68.331 -81.4094
8.591024 68.393 -81.8853
8.653278 68.454 -82.3621
8.715983 68.515 -82.8395
8.779143 68.575 -83.3169
8.842760 68.633 -83.7941
8.906839 68.691 -84.2706
8.971381 68.748 -84.7460
9.036392 68.804 -85.2196
9.101873 68.859 -85.6908
9.167829 68.913 -86.1590
9.234263 68.967 -86.6239
9.301178 69.020 -87.0851
9.368578 69.072 -87.5422
9.436467 69.123 -87.9946
9.504847 69.174 -88.4421
9.573723 69.225 -88.8844
9.643099 69.275 -89.3214
9.712976 69.325 -89.7532
9.783361 69.376 -90.1800
9.854255 69.426 -90.6020
9.925663 69.477 -91.0195
9.997588 69.528 -91.4330
10.070035 69.579 -91.8431
10.143007 69.632 -92.2507
10.216507 69.684 -92.6567
10.290540 69.738 -93.0619
10.365109 69.792 -93.4674
10.440219 69.846 -93.8738
10.515873 69.901 -94.2825
10.592076 69.957 -94.6943
10.668830 70.013 -95.1100
10.746141 70.069 -95.5303
10.824012 70.126 -95.9556
10.902447 70.182 -96.3862
10.981451 70.238 -96.8223
11.061027 70.293 -97.2639
11.141180 70.348 -97.7104
11.221913 70.402 -98.1612
11.303232 70.455 -98.6153
11.385140 70.506 -99.0716
11.467641 70.557 -99.5291
11.550741 70.606 -99.9862
11.634442 70.654 -100.4414
11.718750 70.700 -100.8930
11.803669 70.745 -101.3396
11.889203 70.789 -101.7799
11.975357 70.832 -102.2127
12.062136 70.875 -102.6369
12.149543 70.917 -103.0518
12.237583 70.959 -103.4572
12.326262 71.002 -103.8532
12.415583 71.045 -104.2404
12.505552 71.088 -104.6195
12.596172 71.133 -104.9917
12.687449 71.179 -105.3589
12.779387 71.226 -105.7228
12.871992 71.275 -106.0855
12.965268 71.325 -106.4489
13.059220 71.376 -106.8150
13.153852 71.428 -107.1857
13.249170 71.481 -107.5625
13.345179 71.534 -107.9465
13.441884 71.588 -108.3382
13.539289 71.641 -108.7377
13.637401 71.693 -109.1448
13.736223 71.745 -109.5585
13.835761 71.796 -109.9773
13.936021 71.845 -110.3996
14.037007 71.892 -110.8235
14.138725 71.938 -111.2469
14.241180 71.982 -111.6679
14.344377 72.025 -112.0844
14.448323 72.067 -112.4950
14.553021 72.108 -112.8987
14.658478 72.148 -113.2947
14.764700 72.187 -113.6829
14.871691 72.227 -114.0636
14.979457 72.266 -114.4378
15.088005 72.306 -114.8064
15.197339 72.345 -115.1705
15.307465 72.385 -115.5315
15.418389 72.425 -115.8902
15.530117 72.464 -116.2472
15.642655 72.503 -116.6024
15.756008 72.541 -116.9551
15.870182 72.579 -117.3043
15.985184 72.615 -117.6481
16.101019 72.651 -117.9844
16.217694 72.686 -118.3109
16.335214 72.720 -118.6257
16.453586 72.754 -118.9274
16.572815 72.789 -119.2154
16.692909 72.826 -119.4906
16.813872 72.865 -119.7553
16.935713 72.906 -120.0132
17.058436 72.951 -120.2697
17.182048 73.000 -120.5315
17.306556 73.052 -120.8060
17.431967 73.107 -121.1007
17.558286 73.165 -121.4228
17.685521 73.224 -121.7780
17.813677 73.283 -122.1703
17.942762 73.341 -122.6013
18.072783 73.396 -123.0697
18.203746 73.445 -123.5715
18.335658 73.489 -124.0999
18.468526 73.525 -124.6460
18.602356 73.554 -125.1993
18.737156 73.575 -125.7481
18.872934 73.588 -126.2813
19.009695 73.595 -126.7884
19.147447 73.598 -127.2612
19.286197 73.597 -127.6942
19.425953 73.595 -128.0856
19.566721 73.593 -128.4371
19.708510 73.595 -128.7542
19.851326 73.600 -129.0455
19.995177 73.611 -129.3215
20.140070 73.626 -129.5936
20.286013 73.645 -129.8724
20.433014 73.669 -130.1665
20.581080 73.694 -130.4817
20.730219 73.720 -130.8201
20.880439 73.745 -131.1805
21.031747 73.769 -131.5585
21.184152 73.790 -131.9481
21.337661 73.808 -132.3419
21.492282 73.825 -132.7336
21.648024 73.839 -133.1181
21.804895 73.854 -133.4929
21.962902 73.869 -133.8582
22.122054 73.885 -134.2169
22.282360 73.903 -134.5736
22.443827 73.923 -134.9337
22.606464 73.945 -135.3017
22.770280 73.967 -135.6805
22.935283 73.989 -136.0699
23.101481 74.010 -136.4668
23.268884 74.029 -136.8654
23.437500 74.046 -137.2584
23.607338 74.061 -137.6384
23.778406 74.076 -137.9998
23.950714 74.093 -138.3404
24.124271 74.112 -138.6624
24.299086 74.135 -138.9726
24.475167 74.163 -139.2817
24.652524 74.196 -139.6024
24.831166 74.233 -139.9465
25.011103 74.272 -140.3226
25.192344 74.310 -140.7335
25.374898 74.344 -141.1750
25.558775 74.372 -141.6358
25.743984 74.392 -142.0987
25.930536 74.405 -142.5432
26.118439 74.410 -142.9490
26.307704 74.412 -143.2992
26.498341 74.413 -143.5844
26.690359 74.417 -143.8049
26.883768 74.428 -143.9714
27.078579 74.449 -144.1043
27.274801 74.482 -144.2298
27.472446 74.524 -144.3754
27.671522 74.575 -144.5648
27.872042 74.630 -144.8143
28.074014 74.685 -145.1295
28.277450 74.737 -145.5063
28.482360 74.781 -145.9324
28.688755 74.818 -146.3904
28.896645 74.845 -146.8618
29.106042 74.864 -147.3304
29.316957 74.876 -147.7845
29.529400 74.882 -148.2180
29.743382 74.885 -148.6299
29.958915 74.886 -149.0226
30.176009 74.884 -149.3996
30.394677 74.881 -149.7632
30.614929 74.875 -150.1138
30.836778 74.866 -150.4489
31.060234 74.856 -150.7650
31.285309 74.844 -151.0590
31.512015 74.832 -151.3303
31.740364 74.822 -151.5816
31.970368 74.814 -151.8191
32.202039 74.810 -152.0515
32.435388 74.808 -152.2874
32.670428 74.809 -152.5333
32.907171 74.810 -152.7920
33.145630 74.812 -153.0624
33.385817 74.813 -153.3401
33.627745 74.814 -153.6199
33.871425 74.815 -153.8973
34.116871 74.817 -154.1705
34.364096 74.821 -154.4412
34.613113 74.827 -154.7137
34.863934 74.836 -154.9934
35.116572 74.846 -155.2853
35.371041 74.858 -155.5923
35.627354 74.870 -155.9147
35.885525 74.882 -156.2504
36.145566 74.892 -156.5956
36.407492 74.901 -156.9458
36.671316 74.909 -157.2962
36.937051 74.914 -157.6423
37.204712 74.919 -157.9798
37.474313 74.922 -158.3044
37.745867 74.924 -158.6132
38.019389 74.927 -158.9047
38.294893 74.930 -159.1799
38.572394 74.935 -159.4426
38.851905 74.943 -159.6983
39.133442 74.952 -159.9535
39.417019 74.962 -160.2128
39.702651 74.972 -160.4779
39.990353 74.981 -160.7473
40.280140 74.990 -161.0166
40.572026 74.997 -161.2815
40.866028 75.003 -161.5390
41.162160 75.010 -161.7902
41.460438 75.018 -162.0393
41.760877 75.027 -162.2932
42.063494 75.037 -162.5580
42.368303 75.045 -162.8375
42.675322 75.052 -163.1310
42.984565 75.057 -163.4340
43.296048 75.058 -163.7399
43.609789 75.056 -164.0423
43.925804 75.053 -164.3370
44.244108 75.049 -164.6234
44.564719 75.044 -164.9038
44.887654 75.039 -165.1813
45.212928 75.034 -165.4585
45.540560 75.029 -165.7360
45.870565 75.024 -166.0128
46.202962 75.018 -166.2873
46.537768 75.013 -166.5587
46.875000 75.009 -166.8281
47.214676 75.005 -167.0980
47.556813 75.003 -167.3710
47.901429 75.001 -167.6485
48.248542 75.000 -167.9294
48.598171 74.998 -168.2107
48.950334 74.997 -168.4888
49.305048 74.995 -168.7610
49.662333 74.995 -169.0275
50.022206 74.996 -169.2907
50.384688 74.997 -169.5548
50.749796 74.999 -169.8228
51.117550 75.000 -170.0941
51.487969 74.999 -170.3640
51.861072 74.996 -170.6249
52.236879 74.991 -170.8702
52.615409 74.986 -171.0981
52.996681 74.981 -171.3126
53.380717 74.976 -171.5214
53.767536 74.972 -171.7322
54.157158 74.968 -171.9486
54.549603 74.962 -172.1710
54.944892 74.955 -172.3992
55.343045 74.948 -172.6355
55.744084 74.940 -172.8839
56.148028 74.931 -173.1479
56.554900 74.920 -173.4276
56.964720 74.909 -173.7213
57.377510 74.896 -174.0292
57.793291 74.882 -174.3534
58.212085 74.866 -174.6928
58.633914 74.847 -175.0355
59.058799 74.823 -175.3574
59.486764 74.797 -175.6325
59.917829 74.775 -175.8498
60.352019 74.761 -176.0238
60.789354 74.759 -176.1889
61.229859 74.765 -176.3777
61.673556 74.774 -176.6035
62.120468 74.782 -176.8561
62.570618 74.787 -177.1150
63.024031 74.790 -177.3643
63.480729 74.791 -177.5994
63.940736 74.791 -177.8235
64.404077 74.789 -178.0406
64.870776 74.786 -178.2540
65.340856 74.782 -178.4666
65.814343 74.776 -178.6819
66.291261 74.768 -178.9021
66.771635 74.757 -179.1268
67.255489 74.745 -179.3542
67.742850 74.732 -179.5835
68.233743 74.719 -179.8152
68.728193 74.705 179.9503
69.226226 74.692 179.7134
69.727867 74.680 179.4744
70.233144 74.669 179.2324
70.742083 74.659 178.9863
71.254709 74.649 178.7367
71.771050 74.638 178.4861
72.291132 74.627 178.2378
72.814984 74.615 177.9936
73.342631 74.601 177.7548
73.874102 74.587 177.5227
74.409424 74.571 177.2984
74.948626 74.555 177.0802
75.491734 74.539 176.8618
76.038779 74.524 176.6343
76.589787 74.508 176.3932
77.144788 74.491 176.1418
77.703811 74.471 175.8908
78.266885 74.451 175.6498
78.834039 74.431 175.4228
79.405303 74.413 175.2087
79.980706 74.395 175.0078
80.560280 74.379 174.8232
81.144053 74.365 174.6565
81.732056 74.352 174.5024
82.324320 74.342 174.3502
82.920876 74.332 174.1910
83.521755 74.321 174.0221
84.126988 74.308 173.8450
84.736607 74.292 173.6613
85.350643 74.275 173.4704
85.969129 74.256 173.2710
86.592097 74.235 173.0629
87.219579 74.213 172.8483
87.851608 74.190 172.6313
88.488217 74.168 172.4164
89.129439 74.147 172.2057
89.775308 74.129 171.9996
90.425856 74.112 171.7966
91.081119 74.097 171.5939
