* Measurement data measured by REW V5.31.3
* Source: Headset (CX31993 HIFI AUDIO), MICROPHONE (Master Volume), R, volume: 0.250
* Format: 256k Log Swept Sine, 1 sweep at -12.0 dBFS with no timing reference
* Dated: 01 11, 25 3:47:26 PM
* REW Settings:
*  C-weighting compensation: Off
*  Target level: 75.0 dB
* Note: ; 
* Measurement: Softears Volume S high R
* Smoothing: 1/12 octave
* Frequency Step: 96 ppo
* Start Frequency: 0.36621094 Hz
*
* Freq(Hz) SPL(dB) Phase(degrees)
0.366211 38.079 -40.5472
0.368865 38.091 -40.6992
0.371538 38.107 -40.9271
0.374230 38.128 -41.2138
0.376942 38.151 -41.5445
0.379673 38.175 -41.9084
0.382424 38.201 -42.2984
0.385196 38.227 -42.7103
0.387987 38.254 -43.1417
0.390798 38.282 -43.5915
0.393630 38.309 -44.0596
0.396483 38.337 -44.5458
0.399356 38.365 -45.0507
0.402250 38.393 -45.5745
0.405165 38.421 -46.1179
0.408101 38.450 -46.6814
0.411058 38.478 -47.2657
0.414037 38.507 -47.8714
0.417037 38.536 -48.4992
0.420059 38.566 -49.1497
0.423103 38.595 -49.8236
0.426169 38.625 -50.5217
0.429257 38.655 -51.2446
0.432368 38.686 -51.9931
0.435501 38.716 -52.7679
0.438656 38.747 -53.5697
0.441835 38.778 -54.3993
0.445037 38.809 -55.2573
0.448262 38.840 -56.1444
0.451510 38.872 -57.0614
0.454782 38.904 -58.0089
0.458077 38.936 -58.9874
0.461397 38.968 -59.9977
0.464740 39.000 -61.0403
0.468108 39.033 -62.1156
0.471500 39.066 -63.2240
0.474917 39.099 -64.3659
0.478358 39.133 -65.5416
0.481825 39.167 -66.7512
0.485316 39.200 -67.9948
0.488833 39.235 -69.2722
0.492375 39.269 -70.5833
0.495943 39.304 -71.9277
0.499537 39.339 -73.3049
0.503157 39.374 -74.7141
0.506803 39.409 -76.1547
0.510475 39.445 -77.6254
0.514175 39.481 -79.1251
0.517900 39.517 -80.6523
0.521653 39.554 -82.2055
0.525434 39.591 -83.7827
0.529241 39.628 -85.3822
0.533076 39.665 -87.0016
0.536939 39.702 -88.6387
0.540830 39.740 -90.2911
0.544749 39.778 -91.9562
0.548696 39.817 -93.6312
0.552673 39.855 -95.3136
0.556677 39.894 -97.0005
0.560711 39.934 -98.6891
0.564774 39.973 -100.3767
0.568867 40.013 -102.0605
0.572989 40.053 -103.7379
0.577141 40.093 -105.4062
0.581324 40.134 -107.0630
0.585536 40.175 -108.7060
0.589779 40.216 -110.3331
0.594053 40.258 -111.9421
0.598358 40.300 -113.5314
0.602694 40.342 -115.0992
0.607061 40.384 -116.6441
0.611460 40.427 -118.1650
0.615891 40.470 -119.6606
0.620354 40.514 -121.1302
0.624849 40.557 -122.5730
0.629377 40.601 -123.9884
0.633938 40.646 -125.3763
0.638532 40.691 -126.7362
0.643159 40.736 -128.0682
0.647819 40.781 -129.3722
0.652514 40.827 -130.6484
0.657242 40.872 -131.8971
0.662005 40.919 -133.1185
0.666802 40.965 -134.3132
0.671634 41.013 -135.4816
0.676501 41.060 -136.6243
0.681403 41.108 -137.7418
0.686341 41.156 -138.8348
0.691314 41.205 -139.9039
0.696324 41.254 -140.9498
0.701370 41.304 -141.9731
0.706452 41.356 -142.9745
0.711571 41.409 -143.9545
0.716728 41.466 -144.9134
0.721921 41.527 -145.8515
0.727153 41.595 -146.7688
0.732422 41.672 -147.6649
0.737729 41.758 -148.5392
0.743075 41.854 -149.3913
0.748460 41.959 -150.2206
0.753883 42.070 -151.0271
0.759346 42.187 -151.8111
0.764849 42.310 -152.5728
0.770391 42.437 -153.3128
0.775974 42.569 -154.0317
0.781597 42.706 -154.7301
0.787261 42.846 -155.4088
0.792966 42.991 -156.0685
0.798712 43.139 -156.7099
0.804500 43.292 -157.3337
0.810329 43.448 -157.9406
0.816201 43.608 -158.5313
0.822116 43.772 -159.1065
0.828073 43.940 -159.6670
0.834074 44.111 -160.2133
0.840118 44.286 -160.7461
0.846206 44.464 -161.2661
0.852338 44.645 -161.7739
0.858514 44.830 -162.2701
0.864735 45.018 -162.7552
0.871001 45.208 -163.2299
0.877313 45.402 -163.6947
0.883670 45.598 -164.1502
0.890074 45.797 -164.5968
0.896524 45.998 -165.0352
0.903020 46.202 -165.4656
0.909564 46.408 -165.8888
0.916155 46.615 -166.3050
0.922794 46.825 -166.7148
0.929481 47.036 -167.1186
0.936216 47.249 -167.5168
0.943000 47.463 -167.9099
0.949834 47.677 -168.2982
0.956717 47.893 -168.6820
0.963649 48.109 -169.0619
0.970632 48.326 -169.4381
0.977666 48.543 -169.8110
0.984750 48.759 -170.1809
0.991886 48.976 -170.5482
0.999074 49.191 -170.9132
1.006314 49.406 -171.2761
1.013606 49.619 -171.6374
1.020951 49.831 -171.9973
1.028349 50.041 -172.3561
1.035801 50.249 -172.7141
1.043307 50.454 -173.0714
1.050867 50.657 -173.4284
1.058482 50.856 -173.7853
1.066152 51.052 -174.1421
1.073878 51.245 -174.4989
1.081660 51.434 -174.8557
1.089498 51.619 -175.2120
1.097393 51.801 -175.5674
1.105345 51.979 -175.9213
1.113355 52.155 -176.2730
1.121423 52.329 -176.6220
1.129549 52.501 -176.9679
1.137734 52.671 -177.3105
1.145979 52.839 -177.6498
1.154283 53.005 -177.9857
1.162647 53.170 -178.3186
1.171072 53.334 -178.6484
1.179558 53.496 -178.9753
1.188106 53.657 -179.2995
1.196715 53.816 -179.6212
1.205387 53.974 -179.9406
1.214122 54.130 179.7423
1.222920 54.286 179.4271
1.231782 54.440 179.1138
1.240708 54.593 178.8021
1.249699 54.745 178.4919
1.258754 54.896 178.1829
1.267876 55.046 177.8752
1.277063 55.196 177.5684
1.286318 55.344 177.2623
1.295639 55.492 176.9570
1.305027 55.639 176.6520
1.314484 55.786 176.3475
1.324009 55.932 176.0430
1.333604 56.078 175.7385
1.343268 56.223 175.4338
1.353002 56.369 175.1288
1.362806 56.514 174.8233
1.372681 56.660 174.5172
1.382628 56.805 174.2102
1.392647 56.951 173.9023
1.402739 57.098 173.5933
1.412904 57.245 173.2833
1.423142 57.393 172.9720
1.433455 57.541 172.6596
1.443843 57.690 172.3463
1.454305 57.839 172.0324
1.464844 57.989 171.7184
1.475459 58.139 171.4048
1.486150 58.288 171.0923
1.496920 58.437 170.7812
1.507767 58.586 170.4717
1.518693 58.733 170.1639
1.529698 58.880 169.8577
1.540783 59.026 169.5528
1.551948 59.172 169.2490
1.563194 59.316 168.9460
1.574521 59.460 168.6436
1.585931 59.603 168.3415
1.597423 59.745 168.0393
1.608999 59.887 167.7368
1.620658 60.028 167.4335
1.632402 60.169 167.1294
1.644232 60.309 166.8240
1.656146 60.448 166.5170
1.668147 60.588 166.2083
1.680235 60.726 165.8973
1.692411 60.865 165.5840
1.704675 61.003 165.2679
1.717028 61.141 164.9489
1.729470 61.279 164.6266
1.742003 61.417 164.3008
1.754626 61.555 163.9712
1.767341 61.693 163.6376
1.780147 61.830 163.2999
1.793047 61.968 162.9579
1.806040 62.107 162.6117
1.819128 62.245 162.2616
1.832310 62.383 161.9078
1.845587 62.520 161.5510
1.858961 62.658 161.1917
1.872432 62.795 160.8302
1.886001 62.931 160.4671
1.899667 63.067 160.1024
1.913433 63.202 159.7363
1.927299 63.336 159.3688
1.941265 63.470 159.0000
1.955332 63.603 158.6298
1.969501 63.736 158.2581
1.983773 63.868 157.8849
1.998148 64.000 157.5100
2.012627 64.131 157.1334
2.027212 64.262 156.7550
2.041902 64.392 156.3745
2.056698 64.522 155.9919
2.071602 64.651 155.6070
2.086614 64.780 155.2197
2.101734 64.909 154.8297
2.116964 65.038 154.4368
2.132304 65.167 154.0410
2.147756 65.295 153.6421
2.163320 65.423 153.2398
2.178996 65.551 152.8343
2.194786 65.678 152.4254
2.210690 65.806 152.0132
2.226710 65.932 151.5979
2.242845 66.058 151.1797
2.259098 66.184 150.7588
2.275468 66.309 150.3353
2.291957 66.433 149.9094
2.308566 66.556 149.4813
2.325295 66.679 149.0510
2.342145 66.802 148.6186
2.359117 66.923 148.1842
2.376212 67.044 147.7478
2.393431 67.165 147.3094
2.410775 67.285 146.8691
2.428244 67.404 146.4268
2.445840 67.523 145.9823
2.463564 67.641 145.5357
2.481416 67.759 145.0869
2.499397 67.877 144.6357
2.517509 67.994 144.1818
2.535752 68.111 143.7252
2.554127 68.227 143.2654
2.572635 68.343 142.8024
2.591277 68.458 142.3359
2.610055 68.573 141.8658
2.628968 68.686 141.3922
2.648019 68.799 140.9153
2.667208 68.911 140.4352
2.686535 69.023 139.9523
2.706003 69.133 139.4667
2.725612 69.243 138.9789
2.745363 69.352 138.4888
2.765257 69.461 137.9969
2.785295 69.568 137.5034
2.805478 69.675 137.0082
2.825808 69.782 136.5115
2.846285 69.888 136.0135
2.866910 69.993 135.5139
2.887685 70.097 135.0126
2.908611 70.201 134.5092
2.929688 70.305 134.0034
2.950917 70.407 133.4945
2.972301 70.509 132.9823
2.993839 70.609 132.4665
3.015534 70.709 131.9471
3.037386 70.808 131.4245
3.059396 70.906 130.8989
3.081565 71.003 130.3709
3.103896 71.099 129.8409
3.126388 71.195 129.3094
3.149043 71.289 128.7768
3.171862 71.383 128.2435
3.194847 71.476 127.7099
3.217998 71.568 127.1761
3.241317 71.659 126.6422
3.264805 71.750 126.1080
3.288463 71.840 125.5729
3.312293 71.929 125.0365
3.336295 72.017 124.4980
3.360471 72.103 123.9572
3.384822 72.189 123.4137
3.409350 72.274 122.8679
3.434056 72.358 122.3201
3.458940 72.441 121.7709
3.484005 72.523 121.2208
3.509252 72.604 120.6704
3.534681 72.684 120.1203
3.560295 72.763 119.5711
3.586094 72.841 119.0229
3.612081 72.918 118.4761
3.638255 72.995 117.9303
3.664620 73.071 117.3852
3.691175 73.145 116.8400
3.717923 73.219 116.2943
3.744864 73.291 115.7477
3.772001 73.363 115.2002
3.799335 73.433 114.6520
3.826866 73.503 114.1038
3.854597 73.571 113.5561
3.882529 73.639 113.0095
3.910664 73.705 112.4648
3.939002 73.771 111.9224
3.967546 73.836 111.3828
3.996296 73.901 110.8461
4.025255 73.964 110.3120
4.054423 74.027 109.7802
4.083804 74.088 109.2502
4.113396 74.149 108.7216
4.143204 74.209 108.1943
4.173227 74.268 107.6684
4.203468 74.326 107.1442
4.233928 74.383 106.6222
4.264609 74.439 106.1029
4.295512 74.495 105.5867
4.326639 74.551 105.0740
4.357992 74.605 104.5651
4.389572 74.660 104.0601
4.421380 74.713 103.5586
4.453419 74.766 103.0605
4.485691 74.819 102.5654
4.518196 74.870 102.0732
4.550936 74.922 101.5838
4.583914 74.972 101.0972
4.617131 75.023 100.6135
4.650589 75.073 100.1329
4.684289 75.122 99.6555
4.718233 75.172 99.1816
4.752424 75.221 98.7112
4.786862 75.271 98.2443
4.821549 75.320 97.7808
4.856488 75.368 97.3204
4.891680 75.417 96.8629
4.927127 75.465 96.4079
4.962831 75.514 95.9551
4.998794 75.562 95.5042
5.035017 75.611 95.0548
5.071503 75.659 94.6068
5.108253 75.708 94.1602
5.145270 75.757 93.7148
5.182555 75.806 93.2708
5.220110 75.855 92.8278
5.257937 75.904 92.3857
5.296038 75.953 91.9439
5.334415 76.002 91.5020
5.373071 76.052 91.0593
5.412006 76.102 90.6155
5.451224 76.151 90.1701
5.490725 76.201 89.7228
5.530514 76.251 89.2735
5.570590 76.301 88.8221
5.610957 76.352 88.3687
5.651616 76.402 87.9128
5.692570 76.452 87.4544
5.733821 76.502 86.9930
5.775370 76.552 86.5284
5.817221 76.601 86.0600
5.859375 76.651 85.5877
5.901834 76.700 85.1112
5.944602 76.748 84.6306
5.987679 76.796 84.1460
6.031068 76.844 83.6577
6.074771 76.891 83.1658
6.118792 76.938 82.6708
6.163131 76.984 82.1726
6.207792 77.028 81.6712
6.252776 77.072 81.1667
6.298086 77.115 80.6590
6.343725 77.157 80.1484
6.389694 77.198 79.6356
6.435996 77.238 79.1214
6.482634 77.277 78.6068
6.529610 77.314 78.0926
6.576926 77.350 77.5792
6.624585 77.385 77.0668
6.672590 77.418 76.5558
6.720942 77.451 76.0468
6.769645 77.481 75.5404
6.818700 77.511 75.0381
6.868111 77.539 74.5409
6.917881 77.566 74.0500
6.968010 77.592 73.5661
7.018504 77.617 73.0897
7.069362 77.640 72.6211
7.120590 77.663 72.1610
7.172189 77.685 71.7101
7.224161 77.706 71.2695
7.276511 77.726 70.8399
7.329239 77.747 70.4222
7.382350 77.767 70.0167
7.435845 77.787 69.6235
7.489729 77.807 69.2427
7.544002 77.827 68.8740
7.598669 77.848 68.5173
7.653732 77.870 68.1728
7.709194 77.892 67.8401
7.765058 77.916 67.5193
7.821327 77.941 67.2094
7.878004 77.968 66.9095
7.935091 77.996 66.6182
7.992592 78.026 66.3340
8.050510 78.059 66.0560
8.108847 78.093 65.7829
8.167607 78.129 65.5137
8.226793 78.168 65.2469
8.286408 78.209 64.9805
8.346454 78.252 64.7125
8.406936 78.297 64.4411
8.467856 78.345 64.1648
8.529218 78.394 63.8825
8.591024 78.445 63.5930
8.653278 78.498 63.2947
8.715983 78.552 62.9863
8.779143 78.608 62.6664
8.842760 78.664 62.3343
8.906839 78.721 61.9893
8.971381 78.779 61.6313
9.036392 78.837 61.2601
9.101873 78.894 60.8755
9.167829 78.952 60.4774
9.234263 79.009 60.0661
9.301178 79.065 59.6421
9.368578 79.120 59.2063
9.436467 79.174 58.7596
9.504847 79.226 58.3031
9.573723 79.276 57.8377
9.643099 79.325 57.3643
9.712976 79.372 56.8842
9.783361 79.417 56.3990
9.854255 79.460 55.9101
9.925663 79.501 55.4187
9.997588 79.540 54.9260
10.070035 79.576 54.4332
10.143007 79.611 53.9415
10.216507 79.643 53.4523
10.290540 79.674 52.9666
10.365109 79.703 52.4854
10.440219 79.729 52.0092
10.515873 79.755 51.5391
10.592076 79.778 51.0755
10.668830 79.800 50.6191
10.746141 79.821 50.1703
10.824012 79.841 49.7293
10.902447 79.859 49.2964
10.981451 79.876 48.8716
11.061027 79.893 48.4551
11.141180 79.908 48.0468
11.221913 79.923 47.6466
11.303232 79.937 47.2545
11.385140 79.950 46.8702
11.467641 79.963 46.4937
11.550741 79.975 46.1248
11.634442 79.987 45.7633
11.718750 79.999 45.4089
11.803669 80.009 45.0616
11.889203 80.020 44.7211
11.975357 80.030 44.3872
12.062136 80.040 44.0597
12.149543 80.050 43.7383
12.237583 80.059 43.4229
12.326262 80.068 43.1133
12.415583 80.077 42.8090
12.505552 80.087 42.5099
12.596172 80.095 42.2158
12.687449 80.104 41.9262
12.779387 80.113 41.6410
12.871992 80.122 41.3598
12.965268 80.131 41.0825
13.059220 80.139 40.8087
13.153852 80.148 40.5384
13.249170 80.157 40.2713
13.345179 80.166 40.0074
13.441884 80.174 39.7466
13.539289 80.183 39.4889
13.637401 80.192 39.2343
13.736223 80.201 38.9827
13.835761 80.210 38.7342
13.936021 80.219 38.4887
14.037007 80.229 38.2463
14.138725 80.239 38.0066
14.241180 80.250 37.7693
14.344377 80.261 37.5342
14.448323 80.273 37.3005
14.553021 80.286 37.0676
14.658478 80.300 36.8345
14.764700 80.315 36.6001
14.871691 80.331 36.3633
14.979457 80.349 36.1224
15.088005 80.367 35.8761
15.197339 80.387 35.6228
15.307465 80.407 35.3608
15.418389 80.428 35.0887
15.530117 80.450 34.8050
15.642655 80.472 34.5085
15.756008 80.495 34.1982
15.870182 80.517 33.8737
15.985184 80.538 33.5347
16.101019 80.558 33.1816
16.217694 80.576 32.8156
16.335214 80.592 32.4381
16.453586 80.606 32.0515
16.572815 80.616 31.6587
16.692909 80.624 31.2632
16.813872 80.628 30.8692
16.935713 80.629 30.4810
17.058436 80.626 30.1034
17.182048 80.620 29.7410
17.306556 80.611 29.3984
17.431967 80.601 29.0793
17.558286 80.589 28.7870
17.685521 80.576 28.5232
17.813677 80.564 28.2887
17.942762 80.553 28.0823
18.072783 80.545 27.9016
18.203746 80.539 27.7426
18.335658 80.538 27.5997
18.468526 80.540 27.4672
18.602356 80.546 27.3384
18.737156 80.555 27.2074
18.872934 80.568 27.0690
19.009695 80.583 26.9196
19.147447 80.599 26.7574
19.286197 80.615 26.5830
19.425953 80.630 26.3987
19.566721 80.644 26.2086
19.708510 80.657 26.0179
19.851326 80.668 25.8325
19.995177 80.678 25.6575
20.140070 80.688 25.4963
20.286013 80.699 25.3503
20.433014 80.713 25.2178
20.581080 80.729 25.0935
20.730219 80.750 24.9695
20.880439 80.776 24.8354
21.031747 80.806 24.6808
21.184152 80.840 24.4948
21.337661 80.876 24.2683
21.492282 80.912 23.9950
21.648024 80.946 23.6726
21.804895 80.975 23.3043
21.962902 80.998 22.8983
22.122054 81.012 22.4670
22.282360 81.017 22.0264
22.443827 81.012 21.5940
22.606464 80.998 21.1871
22.770280 80.977 20.8211
22.935283 80.951 20.5074
23.101481 80.924 20.2517
23.268884 80.899 20.0535
23.437500 80.878 19.9050
23.607338 80.864 19.7928
23.778406 80.859 19.6994
23.950714 80.862 19.6050
24.124271 80.873 19.4914
24.299086 80.891 19.3435
24.475167 80.912 19.1520
24.652524 80.934 18.9136
24.831166 80.955 18.6317
25.011103 80.972 18.3147
25.192344 80.984 17.9745
25.374898 80.990 17.6250
25.558775 80.992 17.2794
25.743984 80.989 16.9492
25.930536 80.984 16.6421
26.118439 80.977 16.3623
26.307704 80.971 16.1100
26.498341 80.967 15.8817
26.690359 80.966 15.6714
26.883768 80.968 15.4722
27.078579 80.973 15.2770
27.274801 80.981 15.0798
27.472446 80.990 14.8766
27.671522 81.001 14.6655
27.872042 81.012 14.4467
28.074014 81.022 14.2217
28.277450 81.031 13.9934
28.482360 81.039 13.7651
28.688755 81.046 13.5397
28.896645 81.052 13.3196
29.106042 81.057 13.1065
29.316957 81.061 12.9009
29.529400 81.064 12.7023
29.743382 81.068 12.5098
29.958915 81.071 12.3218
30.176009 81.074 12.1371
30.394677 81.076 11.9541
30.614929 81.079 11.7720
30.836778 81.080 11.5901
31.060234 81.081 11.4078
31.285309 81.082 11.2247
31.512015 81.082 11.0400
31.740364 81.081 10.8530
31.970368 81.080 10.6630
32.202039 81.078 10.4693
32.435388 81.075 10.2721
32.670428 81.072 10.0720
32.907171 81.067 9.8706
33.145630 81.062 9.6697
33.385817 81.055 9.4709
33.627745 81.049 9.2758
33.871425 81.043 9.0843
34.116871 81.037 8.8957
34.364096 81.033 8.7078
34.613113 81.030 8.5181
34.863934 81.028 8.3236
35.116572 81.027 8.1229
35.371041 81.027 7.9151
35.627354 81.026 7.7015
35.885525 81.025 7.4847
36.145566 81.023 7.2683
36.407492 81.021 7.0557
36.671316 81.018 6.8497
36.937051 81.016 6.6515
37.204712 81.014 6.4599
37.474313 81.014 6.2722
37.745867 81.014 6.0845
38.019389 81.015 5.8933
38.294893 81.016 5.6969
38.572394 81.016 5.4958
38.851905 81.014 5.2932
39.133442 81.011 5.0929
39.417019 81.007 4.8990
39.702651 81.002 4.7130
39.990353 80.997 4.5336
40.280140 80.993 4.3569
40.572026 80.990 4.1782
40.866028 80.987 3.9933
41.162160 80.984 3.8004
41.460438 80.980 3.6003
41.760877 80.975 3.3960
42.063494 80.969 3.1914
42.368303 80.963 2.9902
42.675322 80.956 2.7953
42.984565 80.949 2.6088
43.296048 80.944 2.4313
43.609789 80.940 2.2618
43.925804 80.939 2.0975
44.244108 80.939 1.9337
44.564719 80.942 1.7659
44.887654 80.945 1.5931
45.212928 80.948 1.4197
45.540560 80.950 1.2544
45.870565 80.952 1.1061
46.202962 80.956 0.9771
46.537768 80.964 0.8580
46.875000 80.976 0.7288
47.214676 80.992 0.5659
47.556813 81.007 0.3540
47.901429 81.016 0.0957
48.248542 81.015 -0.1874
48.598171 81.003 -0.4628
48.950334 80.983 -0.7008
49.305048 80.957 -0.8868
49.662333 80.933 -1.0262
50.022206 80.911 -1.1392
50.384688 80.894 -1.2501
50.749796 80.879 -1.3762
51.117550 80.864 -1.5233
51.487969 80.848 -1.6874
51.861072 80.831 -1.8602
52.236879 80.813 -2.0347
52.615409 80.795 -2.2074
52.996681 80.779 -2.3784
53.380717 80.764 -2.5502
53.767536 80.751 -2.7261
54.157158 80.740 -2.9087
54.549603 80.730 -3.0983
54.944892 80.721 -3.2921
55.343045 80.712 -3.4853
55.744084 80.702 -3.6725
56.148028 80.694 -3.8503
56.554900 80.686 -4.0180
56.964720 80.680 -4.1778
57.377510 80.675 -4.3346
57.793291 80.671 -4.4955
58.212085 80.668 -4.6678
58.633914 80.664 -4.8561
59.058799 80.657 -5.0583
59.486764 80.646 -5.2650
59.917829 80.631 -5.4635
60.352019 80.613 -5.6431
60.789354 80.593 -5.8001
61.229859 80.575 -5.9378
61.673556 80.558 -6.0631
62.120468 80.544 -6.1832
62.570618 80.532 -6.3043
63.024031 80.523 -6.4326
63.480729 80.516 -6.5735
63.940736 80.510 -6.7306
64.404077 80.504 -6.9030
64.870776 80.497 -7.0864
65.340856 80.487 -7.2746
65.814343 80.476 -7.4618
66.291261 80.462 -7.6423
66.771635 80.447 -7.8112
67.255489 80.430 -7.9648
67.742850 80.413 -8.1035
68.233743 80.397 -8.2319
68.728193 80.383 -8.3574
69.226226 80.368 -8.4866
69.727867 80.355 -8.6228
70.233144 80.341 -8.7671
70.742083 80.326 -8.9189
71.254709 80.312 -9.0773
71.771050 80.296 -9.2404
72.291132 80.281 -9.4067
72.814984 80.265 -9.5762
73.342631 80.249 -9.7495
73.874102 80.233 -9.9271
74.409424 80.216 -10.1080
74.948626 80.198 -10.2891
75.491734 80.179 -10.4664
76.038779 80.159 -10.6362
76.589787 80.139 -10.7966
77.144788 80.120 -10.9484
77.703811 80.102 -11.0957
78.266885 80.085 -11.2435
78.834039 80.069 -11.3932
79.405303 80.054 -11.5431
79.980706 80.040 -11.6919
80.560280 80.026 -11.8413
81.144053 80.013 -11.9932
81.732056 80.001 -12.1458
82.324320 79.987 -12.2939
82.920876 79.973 -12.4341
83.521755 79.959 -12.5660
84.126988 79.944 -12.6901
84.736607 79.928 -12.8052
85.350643 79.912 -12.9116
85.969129 79.894 -13.0138
86.592097 79.875 -13.1172
87.219579 79.854 -13.2219
87.851608 79.831 -13.3236
88.488217 79.807 -13.4218
89.129439 79.783 -13.5240
89.775308 79.760 -13.6413
90.425856 79.736 -13.7773
91.081119 79.710 -13.9268
91.741131 79.684 -14.0813
92.405925 79.659 -14.2369
93.075536 79.634 -14.3942
93.750000 79.610 -14.5530
94.429351 79.587 -14.7108
95.113625 79.565 -14.8654
95.802858 79.544 -15.0183
96.497085 79.524 -15.1736
97.196342 79.504 -15.3322
97.900667 79.482 -15.4895
98.610096 79.459 -15.6394
99.324665 79.435 -15.7794
100.044413 79.409 -15.9108
100.769376 79.383 -16.0352
101.499592 79.355 -16.1512
