* Measurement data measured by REW V5.31.3
* Source: Headset (CX31993 HIFI AUDIO), MICROPHONE (Master Volume), R, volume: 0.250
* Format: 256k Log Swept Sine, 1 sweep at -12.0 dBFS with no timing reference
* Dated: 12 31, 24 12:57:16 PM
* REW Settings:
*  C-weighting compensation: Off
*  Target level: 75.0 dB
* Note: ; 
* Measurement: Sony LB Fit Speech L
* Smoothing: 1/12 octave
* Frequency Step: 96 ppo
* Start Frequency: 0.36621094 Hz
*
* Freq(Hz) SPL(dB) Phase(degrees)
0.366211 35.042 -27.9706
0.368865 35.048 -28.0472
0.371538 35.057 -28.1614
0.374230 35.069 -28.3034
0.376942 35.083 -28.4651
0.379673 35.097 -28.6403
0.382424 35.112 -28.8252
0.385196 35.127 -29.0173
0.387987 35.142 -29.2152
0.390798 35.158 -29.4181
0.393630 35.174 -29.6256
0.396483 35.190 -29.8375
0.399356 35.206 -30.0538
0.402250 35.222 -30.2745
0.405165 35.238 -30.4995
0.408101 35.255 -30.7289
0.411058 35.271 -30.9627
0.414037 35.288 -31.2010
0.417037 35.305 -31.4439
0.420059 35.322 -31.6913
0.423103 35.339 -31.9434
0.426169 35.356 -32.2001
0.429257 35.373 -32.4615
0.432368 35.391 -32.7277
0.435501 35.408 -32.9987
0.438656 35.426 -33.2745
0.441835 35.444 -33.5553
0.445037 35.462 -33.8410
0.448262 35.480 -34.1317
0.451510 35.498 -34.4275
0.454782 35.517 -34.7283
0.458077 35.535 -35.0343
0.461397 35.554 -35.3455
0.464740 35.572 -35.6620
0.468108 35.591 -35.9837
0.471500 35.610 -36.3108
0.474917 35.629 -36.6432
0.478358 35.649 -36.9811
0.481825 35.668 -37.3245
0.485316 35.688 -37.6734
0.488833 35.707 -38.0278
0.492375 35.727 -38.3880
0.495943 35.747 -38.7538
0.499537 35.767 -39.1253
0.503157 35.788 -39.5027
0.506803 35.808 -39.8859
0.510475 35.829 -40.2750
0.514175 35.849 -40.6701
0.517900 35.870 -41.0711
0.521653 35.891 -41.4783
0.525434 35.913 -41.8915
0.529241 35.934 -42.3110
0.533076 35.955 -42.7366
0.536939 35.977 -43.1686
0.540830 35.999 -43.6070
0.544749 36.021 -44.0517
0.548696 36.043 -44.5030
0.552673 36.065 -44.9608
0.556677 36.088 -45.4252
0.560711 36.110 -45.8963
0.564774 36.133 -46.3742
0.568867 36.156 -46.8589
0.572989 36.179 -47.3505
0.577141 36.202 -47.8491
0.581324 36.226 -48.3547
0.585536 36.250 -48.8674
0.589779 36.273 -49.3873
0.594053 36.297 -49.9146
0.598358 36.321 -50.4492
0.602694 36.346 -50.9912
0.607061 36.370 -51.5408
0.611460 36.395 -52.0980
0.615891 36.420 -52.6629
0.620354 36.445 -53.2356
0.624849 36.470 -53.8162
0.629377 36.495 -54.4048
0.633938 36.521 -55.0015
0.638532 36.547 -55.6063
0.643159 36.573 -56.2195
0.647819 36.599 -56.8410
0.652514 36.625 -57.4711
0.657242 36.652 -58.1097
0.662005 36.678 -58.7570
0.666802 36.705 -59.4132
0.671634 36.732 -60.0783
0.676501 36.760 -60.7523
0.681403 36.787 -61.4356
0.686341 36.815 -62.1280
0.691314 36.843 -62.8298
0.696324 36.871 -63.5410
0.701370 36.900 -64.2617
0.706452 36.930 -64.9919
0.711571 36.960 -65.7317
0.716728 36.993 -66.4808
0.721921 37.028 -67.2391
0.727153 37.066 -68.0062
0.732422 37.109 -68.7812
0.737729 37.157 -69.5634
0.743075 37.210 -70.3516
0.748460 37.268 -71.1450
0.753883 37.329 -71.9426
0.759346 37.393 -72.7437
0.764849 37.460 -73.5476
0.770391 37.529 -74.3537
0.775974 37.600 -75.1616
0.781597 37.673 -75.9707
0.787261 37.748 -76.7806
0.792966 37.826 -77.5909
0.798712 37.905 -78.4012
0.804500 37.986 -79.2111
0.810329 38.068 -80.0203
0.816201 38.153 -80.8284
0.822116 38.240 -81.6353
0.828073 38.328 -82.4405
0.834074 38.419 -83.2440
0.840118 38.511 -84.0454
0.846206 38.605 -84.8446
0.852338 38.701 -85.6414
0.858514 38.798 -86.4357
0.864735 38.897 -87.2273
0.871001 38.998 -88.0162
0.877313 39.101 -88.8024
0.883670 39.205 -89.5857
0.890074 39.311 -90.3663
0.896524 39.419 -91.1440
0.903020 39.528 -91.9189
0.909564 39.638 -92.6911
0.916155 39.750 -93.4607
0.922794 39.864 -94.2277
0.929481 39.979 -94.9922
0.936216 40.095 -95.7545
0.943000 40.212 -96.5146
0.949834 40.331 -97.2727
0.956717 40.451 -98.0290
0.963649 40.571 -98.7836
0.970632 40.693 -99.5368
0.977666 40.816 -100.2889
0.984750 40.940 -101.0399
0.991886 41.065 -101.7903
0.999074 41.190 -102.5401
1.006314 41.316 -103.2898
1.013606 41.443 -104.0395
1.020951 41.570 -104.7895
1.028349 41.698 -105.5401
1.035801 41.826 -106.2916
1.043307 41.954 -107.0442
1.050867 42.082 -107.7982
1.058482 42.211 -108.5537
1.066152 42.339 -109.3110
1.073878 42.468 -110.0699
1.081660 42.596 -110.8303
1.089498 42.725 -111.5916
1.097393 42.854 -112.3531
1.105345 42.984 -113.1137
1.113355 43.114 -113.8722
1.121423 43.246 -114.6274
1.129549 43.379 -115.3785
1.137734 43.513 -116.1248
1.145979 43.648 -116.8659
1.154283 43.786 -117.6014
1.162647 43.924 -118.3312
1.171072 44.064 -119.0551
1.179558 44.205 -119.7732
1.188106 44.348 -120.4853
1.196715 44.491 -121.1916
1.205387 44.636 -121.8921
1.214122 44.783 -122.5868
1.222920 44.930 -123.2760
1.231782 45.079 -123.9597
1.240708 45.228 -124.6381
1.249699 45.379 -125.3114
1.258754 45.531 -125.9798
1.267876 45.683 -126.6434
1.277063 45.837 -127.3026
1.286318 45.991 -127.9576
1.295639 46.146 -128.6086
1.305027 46.301 -129.2558
1.314484 46.457 -129.8997
1.324009 46.614 -130.5404
1.333604 46.771 -131.1783
1.343268 46.928 -131.8137
1.353002 47.086 -132.4469
1.362806 47.244 -133.0782
1.372681 47.401 -133.7080
1.382628 47.559 -134.3365
1.392647 47.717 -134.9641
1.402739 47.875 -135.5911
1.412904 48.032 -136.2177
1.423142 48.189 -136.8441
1.433455 48.345 -137.4704
1.443843 48.501 -138.0965
1.454305 48.657 -138.7220
1.464844 48.812 -139.3463
1.475459 48.966 -139.9686
1.486150 49.121 -140.5881
1.496920 49.275 -141.2042
1.507767 49.429 -141.8164
1.518693 49.583 -142.4246
1.529698 49.737 -143.0286
1.540783 49.891 -143.6286
1.551948 50.045 -144.2247
1.563194 50.199 -144.8173
1.574521 50.353 -145.4066
1.585931 50.507 -145.9929
1.597423 50.661 -146.5765
1.608999 50.814 -147.1578
1.620658 50.968 -147.7371
1.632402 51.121 -148.3148
1.644232 51.275 -148.8912
1.656146 51.428 -149.4668
1.668147 51.582 -150.0420
1.680235 51.735 -150.6171
1.692411 51.888 -151.1925
1.704675 52.041 -151.7687
1.717028 52.194 -152.3461
1.729470 52.347 -152.9250
1.742003 52.500 -153.5059
1.754626 52.652 -154.0892
1.767341 52.805 -154.6752
1.780147 52.958 -155.2643
1.793047 53.110 -155.8566
1.806040 53.262 -156.4524
1.819128 53.414 -157.0515
1.832310 53.566 -157.6537
1.845587 53.717 -158.2584
1.858961 53.868 -158.8651
1.872432 54.019 -159.4732
1.886001 54.169 -160.0822
1.899667 54.318 -160.6915
1.913433 54.467 -161.3010
1.927299 54.615 -161.9103
1.941265 54.763 -162.5191
1.955332 54.911 -163.1275
1.969501 55.058 -163.7351
1.983773 55.204 -164.3420
1.998148 55.350 -164.9481
2.012627 55.496 -165.5535
2.027212 55.641 -166.1581
2.041902 55.786 -166.7620
2.056698 55.931 -167.3653
2.071602 56.075 -167.9681
2.086614 56.219 -168.5706
2.101734 56.363 -169.1730
2.116964 56.506 -169.7754
2.132304 56.649 -170.3781
2.147756 56.792 -170.9814
2.163320 56.935 -171.5856
2.178996 57.077 -172.1909
2.194786 57.219 -172.7976
2.210690 57.361 -173.4059
2.226710 57.502 -174.0159
2.242845 57.643 -174.6274
2.259098 57.782 -175.2404
2.275468 57.922 -175.8544
2.291957 58.060 -176.4694
2.308566 58.198 -177.0848
2.325295 58.335 -177.7005
2.342145 58.471 -178.3162
2.359117 58.607 -178.9315
2.376212 58.742 -179.5464
2.393431 58.877 179.8393
2.410775 59.011 179.2259
2.428244 59.145 178.6134
2.445840 59.278 178.0019
2.463564 59.411 177.3914
2.481416 59.544 176.7818
2.499397 59.676 176.1730
2.517509 59.807 175.5648
2.535752 59.939 174.9570
2.554127 60.070 174.3490
2.572635 60.200 173.7404
2.591277 60.330 173.1308
2.610055 60.459 172.5199
2.628968 60.587 171.9076
2.648019 60.715 171.2942
2.667208 60.842 170.6797
2.686535 60.968 170.0647
2.706003 61.093 169.4494
2.725612 61.218 168.8342
2.745363 61.342 168.2196
2.765257 61.465 167.6058
2.785295 61.588 166.9932
2.805478 61.711 166.3820
2.825808 61.833 165.7725
2.846285 61.954 165.1647
2.866910 62.075 164.5588
2.887685 62.196 163.9546
2.908611 62.316 163.3517
2.929688 62.435 162.7498
2.950917 62.554 162.1483
2.972301 62.673 161.5466
2.993839 62.791 160.9445
3.015534 62.907 160.3420
3.037386 63.024 159.7392
3.059396 63.139 159.1364
3.081565 63.254 158.5339
3.103896 63.368 157.9321
3.126388 63.482 157.3315
3.149043 63.594 156.7324
3.171862 63.707 156.1351
3.194847 63.819 155.5401
3.217998 63.931 154.9475
3.241317 64.042 154.3574
3.264805 64.153 153.7697
3.288463 64.263 153.1840
3.312293 64.373 152.6001
3.336295 64.482 152.0174
3.360471 64.591 151.4355
3.384822 64.699 150.8544
3.409350 64.807 150.2739
3.434056 64.914 149.6943
3.458940 65.020 149.1157
3.484005 65.126 148.5384
3.509252 65.231 147.9628
3.534681 65.336 147.3890
3.560295 65.440 146.8174
3.586094 65.545 146.2480
3.612081 65.649 145.6811
3.638255 65.752 145.1164
3.664620 65.855 144.5538
3.691175 65.958 143.9930
3.717923 66.060 143.4337
3.744864 66.162 142.8756
3.772001 66.264 142.3188
3.799335 66.365 141.7630
3.826866 66.465 141.2085
3.854597 66.565 140.6554
3.882529 66.665 140.1038
3.910664 66.765 139.5538
3.939002 66.864 139.0056
3.967546 66.963 138.4591
3.996296 67.061 137.9145
4.025255 67.160 137.3715
4.054423 67.258 136.8300
4.083804 67.356 136.2899
4.113396 67.453 135.7508
4.143204 67.550 135.2127
4.173227 67.647 134.6757
4.203468 67.743 134.1396
4.233928 67.839 133.6045
4.264609 67.935 133.0704
4.295512 68.031 132.5373
4.326639 68.126 132.0052
4.357992 68.221 131.4740
4.389572 68.315 130.9436
4.421380 68.410 130.4138
4.453419 68.504 129.8846
4.485691 68.598 129.3558
4.518196 68.691 128.8274
4.550936 68.784 128.2994
4.583914 68.877 127.7718
4.617131 68.969 127.2446
4.650589 69.061 126.7180
4.684289 69.153 126.1918
4.718233 69.244 125.6660
4.752424 69.335 125.1404
4.786862 69.426 124.6151
4.821549 69.516 124.0897
4.856488 69.606 123.5642
4.891680 69.695 123.0387
4.927127 69.784 122.5132
4.962831 69.873 121.9879
4.998794 69.961 121.4629
5.035017 70.048 120.9382
5.071503 70.135 120.4139
5.108253 70.222 119.8899
5.145270 70.308 119.3660
5.182555 70.394 118.8422
5.220110 70.479 118.3184
5.257937 70.564 117.7945
5.296038 70.648 117.2707
5.334415 70.732 116.7472
5.373071 70.815 116.2242
5.412006 70.897 115.7017
5.451224 70.979 115.1799
5.490725 71.061 114.6588
5.530514 71.142 114.1381
5.570590 71.222 113.6179
5.610957 71.302 113.0979
5.651616 71.381 112.5784
5.692570 71.460 112.0594
5.733821 71.538 111.5410
5.775370 71.616 111.0234
5.817221 71.693 110.5068
5.859375 71.770 109.9910
5.901834 71.846 109.4759
5.944602 71.921 108.9615
5.987679 71.996 108.4477
6.031068 72.071 107.9345
6.074771 72.145 107.4218
6.118792 72.219 106.9098
6.163131 72.292 106.3984
6.207792 72.364 105.8877
6.252776 72.436 105.3775
6.298086 72.508 104.8678
6.343725 72.579 104.3584
6.389694 72.649 103.8492
6.435996 72.720 103.3403
6.482634 72.789 102.8315
6.529610 72.858 102.3228
6.576926 72.927 101.8141
6.624585 72.995 101.3052
6.672590 73.063 100.7962
6.720942 73.130 100.2869
6.769645 73.196 99.7772
6.818700 73.262 99.2672
6.868111 73.328 98.7567
6.917881 73.392 98.2458
6.968010 73.457 97.7342
7.018504 73.520 97.2220
7.069362 73.583 96.7092
7.120590 73.645 96.1957
7.172189 73.707 95.6816
7.224161 73.768 95.1671
7.276511 73.828 94.6522
7.329239 73.887 94.1370
7.382350 73.946 93.6213
7.435845 74.004 93.1053
7.489729 74.061 92.5892
7.544002 74.117 92.0731
7.598669 74.172 91.5572
7.653732 74.227 91.0419
7.709194 74.281 90.5272
7.765058 74.334 90.0132
7.821327 74.386 89.5000
7.878004 74.437 88.9878
7.935091 74.487 88.4768
7.992592 74.537 87.9674
8.050510 74.586 87.4598
8.108847 74.634 86.9540
8.167607 74.682 86.4501
8.226793 74.729 85.9481
8.286408 74.775 85.4481
8.346454 74.821 84.9502
8.406936 74.866 84.4545
8.467856 74.911 83.9609
8.529218 74.955 83.4693
8.591024 74.999 82.9797
8.653278 75.043 82.4916
8.715983 75.086 82.0051
8.779143 75.130 81.5197
8.842760 75.173 81.0353
8.906839 75.216 80.5516
8.971381 75.259 80.0682
9.036392 75.301 79.5847
9.101873 75.344 79.1007
9.167829 75.386 78.6158
9.234263 75.429 78.1296
9.301178 75.471 77.6418
9.368578 75.513 77.1522
9.436467 75.554 76.6602
9.504847 75.596 76.1657
9.573723 75.637 75.6684
9.643099 75.678 75.1682
9.712976 75.718 74.6650
9.783361 75.758 74.1589
9.854255 75.797 73.6500
9.925663 75.836 73.1383
9.997588 75.873 72.6241
10.070035 75.910 72.1077
10.143007 75.947 71.5895
10.216507 75.982 71.0701
10.290540 76.016 70.5500
10.365109 76.050 70.0295
10.440219 76.082 69.5093
10.515873 76.114 68.9900
10.592076 76.145 68.4722
10.668830 76.175 67.9564
10.746141 76.204 67.4432
10.824012 76.233 66.9328
10.902447 76.261 66.4257
10.981451 76.288 65.9221
11.061027 76.315 65.4221
11.141180 76.342 64.9258
11.221913 76.369 64.4330
11.303232 76.396 63.9435
11.385140 76.423 63.4569
11.467641 76.450 62.9728
11.550741 76.477 62.4907
11.634442 76.504 62.0098
11.718750 76.531 61.5295
11.803669 76.559 61.0492
11.889203 76.587 60.5682
11.975357 76.615 60.0861
12.062136 76.643 59.6021
12.149543 76.671 59.1159
12.237583 76.699 58.6273
12.326262 76.726 58.1363
12.415583 76.753 57.6429
12.505552 76.779 57.1474
12.596172 76.805 56.6502
12.687449 76.829 56.1519
12.779387 76.853 55.6534
12.871992 76.876 55.1556
12.965268 76.898 54.6592
13.059220 76.918 54.1653
13.153852 76.938 53.6750
13.249170 76.957 53.1890
13.345179 76.974 52.7083
13.441884 76.992 52.2332
13.539289 77.008 51.7645
13.637401 77.024 51.3023
13.736223 77.040 50.8465
13.835761 77.056 50.3969
13.936021 77.072 49.9529
14.037007 77.088 49.5139
14.138725 77.104 49.0789
14.241180 77.120 48.6469
14.344377 77.137 48.2169
14.448323 77.154 47.7876
14.553021 77.171 47.3581
14.658478 77.187 46.9274
14.764700 77.204 46.4948
14.871691 77.221 46.0597
14.979457 77.237 45.6219
15.088005 77.252 45.1814
15.197339 77.266 44.7383
15.307465 77.279 44.2933
15.418389 77.291 43.8470
15.530117 77.302 43.4004
15.642655 77.311 42.9546
15.756008 77.318 42.5107
15.870182 77.324 42.0699
15.985184 77.328 41.6333
16.101019 77.331 41.2022
16.217694 77.332 40.7774
16.335214 77.333 40.3599
16.453586 77.332 39.9503
16.572815 77.330 39.5491
16.692909 77.328 39.1566
16.813872 77.325 38.7728
16.935713 77.322 38.3974
17.058436 77.319 38.0297
17.182048 77.316 37.6690
17.306556 77.313 37.3140
17.431967 77.311 36.9631
17.558286 77.310 36.6146
17.685521 77.309 36.2663
17.813677 77.309 35.9160
17.942762 77.309 35.5615
18.072783 77.310 35.2008
18.203746 77.310 34.8322
18.335658 77.310 34.4546
18.468526 77.309 34.0676
18.602356 77.306 33.6719
18.737156 77.301 33.2694
18.872934 77.294 32.8629
19.009695 77.283 32.4565
19.147447 77.268 32.0552
19.286197 77.251 31.6646
19.425953 77.230 31.2904
19.566721 77.207 30.9383
19.708510 77.182 30.6127
19.851326 77.156 30.3168
19.995177 77.132 30.0515
20.140070 77.109 29.8152
20.286013 77.090 29.6036
20.433014 77.075 29.4100
20.581080 77.065 29.2252
20.730219 77.061 29.0389
20.880439 77.062 28.8406
21.031747 77.067 28.6205
21.184152 77.074 28.3708
21.337661 77.083 28.0871
21.492282 77.091 27.7684
21.648024 77.096 27.4175
21.804895 77.097 27.0411
21.962902 77.092 26.6489
22.122054 77.081 26.2524
22.282360 77.063 25.8641
22.443827 77.039 25.4957
22.606464 77.011 25.1570
22.770280 76.980 24.8547
22.935283 76.947 24.5914
23.101481 76.916 24.3658
23.268884 76.887 24.1725
23.437500 76.862 24.0026
23.607338 76.840 23.8456
23.778406 76.823 23.6910
23.950714 76.810 23.5292
24.124271 76.798 23.3534
24.299086 76.787 23.1602
24.475167 76.776 22.9496
24.652524 76.762 22.7247
24.831166 76.746 22.4907
25.011103 76.727 22.2540
25.192344 76.706 22.0203
25.374898 76.682 21.7945
25.558775 76.656 21.5793
25.743984 76.629 21.3757
25.930536 76.602 21.1825
26.118439 76.575 20.9973
26.307704 76.548 20.8176
26.498341 76.521 20.6410
26.690359 76.494 20.4662
26.883768 76.466 20.2932
27.078579 76.437 20.1228
27.274801 76.408 19.9564
27.472446 76.378 19.7958
27.671522 76.347 19.6418
27.872042 76.316 19.4948
28.074014 76.286 19.3540
28.277450 76.256 19.2184
28.482360 76.226 19.0865
28.688755 76.196 18.9575
28.896645 76.166 18.8312
29.106042 76.136 18.7084
29.316957 76.106 18.5907
29.529400 76.075 18.4796
29.743382 76.045 18.3768
29.958915 76.014 18.2830
30.176009 75.985 18.1976
30.394677 75.956 18.1195
30.614929 75.928 18.0468
30.836778 75.900 17.9776
31.060234 75.873 17.9110
31.285309 75.847 17.8469
31.512015 75.819 17.7865
31.740364 75.792 17.7318
31.970368 75.764 17.6846
32.202039 75.735 17.6468
32.435388 75.707 17.6188
32.670428 75.679 17.6004
32.907171 75.651 17.5903
33.145630 75.623 17.5873
33.385817 75.595 17.5908
33.627745 75.567 17.6013
33.871425 75.539 17.6205
34.116871 75.510 17.6508
34.364096 75.480 17.6940
34.613113 75.451 17.7509
34.863934 75.423 17.8200
35.116572 75.397 17.8977
35.371041 75.372 17.9790
35.627354 75.348 18.0587
35.885525 75.325 18.1331
36.145566 75.301 18.2014
36.407492 75.276 18.2661
36.671316 75.249 18.3327
36.937051 75.220 18.4076
37.204712 75.190 18.4968
37.474313 75.159 18.6038
37.745867 75.128 18.7285
38.019389 75.099 18.8676
38.294893 75.072 19.0155
38.572394 75.046 19.1663
38.851905 75.022 19.3154
39.133442 74.998 19.4613
39.417019 74.974 19.6053
39.702651 74.950 19.7510
39.990353 74.924 19.9025
40.280140 74.898 20.0635
40.572026 74.873 20.2358
40.866028 74.848 20.4192
41.162160 74.824 20.6116
41.460438 74.802 20.8102
41.760877 74.781 21.0126
42.063494 74.761 21.2173
42.368303 74.741 21.4247
42.675322 74.722 21.6368
42.984565 74.704 21.8567
43.296048 74.686 22.0870
43.609789 74.670 22.3291
43.925804 74.656 22.5819
44.244108 74.644 22.8413
44.564719 74.636 23.1017
44.887654 74.630 23.3567
45.212928 74.626 23.6023
45.540560 74.623 23.8375
45.870565 74.619 24.0656
46.202962 74.615 24.2926
46.537768 74.610 24.5254
46.875000 74.605 24.7689
47.214676 74.600 25.0247
47.556813 74.597 25.2903
47.901429 74.595 25.5609
48.248542 74.595 25.8321
48.598171 74.596 26.1014
48.950334 74.598 26.3695
49.305048 74.599 26.6392
49.662333 74.601 26.9139
50.022206 74.603 27.1956
50.384688 74.606 27.4839
50.749796 74.611 27.7771
51.117550 74.618 28.0721
51.487969 74.627 28.3662
51.861072 74.637 28.6581
52.236879 74.648 28.9473
52.615409 74.660 29.2346
52.996681 74.674 29.5215
53.380717 74.688 29.8091
53.767536 74.703 30.0974
54.157158 74.720 30.3856
54.549603 74.738 30.6719
54.944892 74.756 30.9553
55.343045 74.775 31.2365
55.744084 74.794 31.5182
56.148028 74.812 31.8044
56.554900 74.831 32.0977
56.964720 74.851 32.3981
57.377510 74.873 32.7012
57.793291 74.897 33.0005
58.212085 74.922 33.2898
58.633914 74.949 33.5659
59.058799 74.977 33.8298
59.486764 75.004 34.0861
59.917829 75.032 34.3403
60.352019 75.060 34.5974
60.789354 75.091 34.8602
61.229859 75.124 35.1291
61.673556 75.159 35.4024
62.120468 75.199 35.6776
62.570618 75.240 35.9533
63.024031 75.284 36.2306
63.480729 75.330 36.5128
63.940736 75.377 36.8030
64.404077 75.425 37.1030
64.870776 75.474 37.4149
65.340856 75.524 37.7422
65.814343 75.576 38.0836
66.291261 75.633 38.4238
66.771635 75.693 38.7298
67.255489 75.755 38.9667
67.742850 75.809 39.1225
68.233743 75.851 39.2211
68.728193 75.879 39.3089
69.226226 75.896 39.4249
69.727867 75.908 39.5814
70.233144 75.920 39.7699
70.742083 75.934 39.9800
71.254709 75.951 40.2083
71.771050 75.974 40.4511
72.291132 76.005 40.6956
72.814984 76.045 40.9232
73.342631 76.091 41.1215
73.874102 76.141 41.2903
74.409424 76.194 41.4371
74.948626 76.248 41.5703
75.491734 76.303 41.6964
76.038779 76.357 41.8209
76.589787 76.409 41.9485
77.144788 76.461 42.0819
77.703811 76.511 42.2209
78.266885 76.560 42.3631
78.834039 76.607 42.5051
79.405303 76.654 42.6440
79.980706 76.701 42.7784
80.560280 76.747 42.9081
81.144053 76.793 43.0329
81.732056 76.841 43.1523
82.324320 76.890 43.2652
82.920876 76.941 43.3704
83.521755 76.993 43.4670
84.126988 77.046 43.5562
84.736607 77.099 43.6417
85.350643 77.151 43.7289
85.969129 77.203 43.8227
86.592097 77.254 43.9242
87.219579 77.305 44.0307
87.851608 77.356 44.1365
88.488217 77.407 44.2369
89.129439 77.457 44.3287
89.775308 77.506 44.4096
90.425856 77.554 44.4774
91.081119 77.602 44.5305
91.741131 77.649 44.5699
92.405925 77.695 44.5985
93.075536 77.741 44.6207
93.750000 77.787 44.6396
94.429351 77.833 44.6570
95.113625 77.880 44.6723
95.802858 77.928 44.6840
96.497085 77.976 44.6906
97.196342 78.025 44.6912
97.900667 78.073 44.6852
98.610096 78.121 44.6736
99.324665 78.167 44.6589
100.044413 78.212 44.6441
