* Measurement data measured by REW V5.31.3
* Source: Headset (CX31993 HIFI AUDIO), MICROPHONE (Master Volume), R, volume: 0.250
* Format: 256k Log Swept Sine, 1 sweep at -12.0 dBFS with no timing reference
* Dated: 12 31, 24 12:54:55 PM
* REW Settings:
*  C-weighting compensation: Off
*  Target level: 75.0 dB
* Note: ; 
* Measurement: Sony LB Fit Excited L
* Smoothing: 1/12 octave
* Frequency Step: 96 ppo
* Start Frequency: 0.36621094 Hz
*
* Freq(Hz) SPL(dB) Phase(degrees)
0.366211 48.404 7.9048
0.368865 48.400 7.9062
0.371538 48.396 7.9084
0.374230 48.390 7.9110
0.376942 48.383 7.9141
0.379673 48.376 7.9174
0.382424 48.369 7.9209
0.385196 48.361 7.9246
0.387987 48.353 7.9283
0.390798 48.345 7.9322
0.393630 48.337 7.9362
0.396483 48.330 7.9403
0.399356 48.321 7.9444
0.402250 48.313 7.9487
0.405165 48.305 7.9531
0.408101 48.297 7.9576
0.411058 48.289 7.9622
0.414037 48.280 7.9669
0.417037 48.272 7.9717
0.420059 48.263 7.9766
0.423103 48.255 7.9817
0.426169 48.246 7.9868
0.429257 48.238 7.9921
0.432368 48.229 7.9975
0.435501 48.220 8.0031
0.438656 48.211 8.0087
0.441835 48.202 8.0145
0.445037 48.193 8.0205
0.448262 48.184 8.0266
0.451510 48.175 8.0328
0.454782 48.166 8.0392
0.458077 48.157 8.0457
0.461397 48.148 8.0524
0.464740 48.138 8.0592
0.468108 48.129 8.0662
0.471500 48.119 8.0734
0.474917 48.110 8.0807
0.478358 48.100 8.0883
0.481825 48.090 8.0959
0.485316 48.081 8.1038
0.488833 48.071 8.1119
0.492375 48.061 8.1202
0.495943 48.051 8.1286
0.499537 48.041 8.1373
0.503157 48.031 8.1462
0.506803 48.020 8.1553
0.510475 48.010 8.1646
0.514175 48.000 8.1741
0.517900 47.989 8.1839
0.521653 47.979 8.1939
0.525434 47.968 8.2042
0.529241 47.958 8.2147
0.533076 47.947 8.2254
0.536939 47.936 8.2365
0.540830 47.925 8.2478
0.544749 47.914 8.2593
0.548696 47.903 8.2712
0.552673 47.892 8.2834
0.556677 47.881 8.2958
0.560711 47.869 8.3086
0.564774 47.858 8.3217
0.568867 47.846 8.3351
0.572989 47.835 8.3489
0.577141 47.823 8.3630
0.581324 47.812 8.3775
0.585536 47.800 8.3923
0.589779 47.788 8.4076
0.594053 47.776 8.4232
0.598358 47.764 8.4392
0.602694 47.752 8.4556
0.607061 47.739 8.4725
0.611460 47.727 8.4898
0.615891 47.715 8.5076
0.620354 47.702 8.5258
0.624849 47.690 8.5445
0.629377 47.677 8.5638
0.633938 47.664 8.5835
0.638532 47.651 8.6038
0.643159 47.638 8.6246
0.647819 47.625 8.6460
0.652514 47.612 8.6680
0.657242 47.599 8.6906
0.662005 47.585 8.7138
0.666802 47.572 8.7376
0.671634 47.558 8.7622
0.676501 47.545 8.7874
0.681403 47.531 8.8133
0.686341 47.517 8.8400
0.691314 47.503 8.8673
0.696324 47.489 8.8952
0.701370 47.474 8.9236
0.706452 47.459 8.9521
0.711571 47.443 8.9805
0.716728 47.426 9.0077
0.721921 47.406 9.0328
0.727153 47.384 9.0543
0.732422 47.357 9.0707
0.737729 47.326 9.0810
0.743075 47.291 9.0852
0.748460 47.252 9.0842
0.753883 47.211 9.0788
0.759346 47.167 9.0700
0.764849 47.121 9.0581
0.770391 47.074 9.0437
0.775974 47.025 9.0270
0.781597 46.975 9.0081
0.787261 46.924 8.9870
0.792966 46.872 8.9639
0.798712 46.818 8.9387
0.804500 46.763 8.9114
0.810329 46.707 8.8821
0.816201 46.650 8.8508
0.822116 46.591 8.8175
0.828073 46.531 8.7822
0.834074 46.469 8.7449
0.840118 46.406 8.7056
0.846206 46.342 8.6644
0.852338 46.276 8.6212
0.858514 46.208 8.5761
0.864735 46.140 8.5292
0.871001 46.069 8.4803
0.877313 45.997 8.4296
0.883670 45.923 8.3772
0.890074 45.848 8.3229
0.896524 45.771 8.2669
0.903020 45.693 8.2093
0.909564 45.612 8.1499
0.916155 45.530 8.0890
0.922794 45.446 8.0265
0.929481 45.361 7.9626
0.936216 45.273 7.8972
0.943000 45.184 7.8305
0.949834 45.092 7.7625
0.956717 44.999 7.6932
0.963649 44.903 7.6229
0.970632 44.806 7.5516
0.977666 44.706 7.4793
0.984750 44.605 7.4063
0.991886 44.501 7.3326
0.999074 44.395 7.2584
1.006314 44.286 7.1837
1.013606 44.176 7.1089
1.020951 44.063 7.0340
1.028349 43.948 6.9593
1.035801 43.830 6.8848
1.043307 43.710 6.8110
1.050867 43.587 6.7378
1.058482 43.461 6.6656
1.066152 43.333 6.5942
1.073878 43.200 6.5235
1.081660 43.064 6.4532
1.089498 42.923 6.3822
1.097393 42.776 6.3092
1.105345 42.620 6.2322
1.113355 42.456 6.1489
1.121423 42.280 6.0573
1.129549 42.093 5.9556
1.137734 41.894 5.8421
1.145979 41.683 5.7156
1.154283 41.460 5.5750
1.162647 41.226 5.4189
1.171072 40.982 5.2463
1.179558 40.727 5.0555
1.188106 40.464 4.8450
1.196715 40.192 4.6128
1.205387 39.912 4.3565
1.214122 39.627 4.0731
1.222920 39.335 3.7590
1.231782 39.039 3.4096
1.240708 38.740 3.0189
1.249699 38.438 2.5791
1.258754 38.136 2.0799
1.267876 37.834 1.5072
1.277063 37.533 0.8412
1.286318 37.236 0.0534
1.295639 36.943 -0.8990
1.305027 36.657 -2.0833
1.314484 36.378 -3.6114
1.324009 36.109 -5.6836
1.333604 35.851 -8.6957
1.343268 35.607 -13.5430
1.353002 35.378 -22.6749
1.362806 35.166 -44.5019
1.372681 34.975 -96.5113
1.382628 34.806 -137.3496
1.392647 34.661 -152.8751
1.402739 34.544 -160.0347
1.412904 34.458 -164.1271
1.423142 34.404 -166.8148
1.433455 34.387 -168.7513
1.443843 34.409 -170.2398
1.454305 34.473 -171.4369
1.464844 34.581 -172.4303
1.475459 34.735 -173.2724
1.486150 34.936 -173.9969
1.496920 35.185 -174.6279
1.507767 35.479 -175.1836
1.518693 35.818 -175.6789
1.529698 36.200 -176.1255
1.540783 36.621 -176.5331
1.551948 37.081 -176.9094
1.563194 37.575 -177.2608
1.574521 38.101 -177.5923
1.585931 38.655 -177.9082
1.597423 39.235 -178.2118
1.608999 39.838 -178.5062
1.620658 40.459 -178.7937
1.632402 41.095 -179.0762
1.644232 41.744 -179.3557
1.656146 42.401 -179.6334
1.668147 43.063 -179.9107
1.680235 43.725 179.8112
1.692411 44.385 179.5315
1.704675 45.038 179.2491
1.717028 45.681 178.9636
1.729470 46.310 178.6740
1.742003 46.921 178.3799
1.754626 47.510 178.0807
1.767341 48.075 177.7762
1.780147 48.612 177.4662
1.793047 49.119 177.1508
1.806040 49.596 176.8302
1.819128 50.043 176.5053
1.832310 50.461 176.1772
1.845587 50.853 175.8474
1.858961 51.221 175.5171
1.872432 51.570 175.1873
1.886001 51.900 174.8587
1.899667 52.213 174.5316
1.913433 52.511 174.2061
1.927299 52.794 173.8820
1.941265 53.064 173.5592
1.955332 53.322 173.2374
1.969501 53.568 172.9163
1.983773 53.803 172.5957
1.998148 54.029 172.2751
2.012627 54.247 171.9543
2.027212 54.457 171.6331
2.041902 54.661 171.3109
2.056698 54.860 170.9875
2.071602 55.056 170.6627
2.086614 55.250 170.3359
2.101734 55.443 170.0070
2.116964 55.636 169.6757
2.132304 55.831 169.3415
2.147756 56.028 169.0043
2.163320 56.228 168.6638
2.178996 56.431 168.3200
2.194786 56.636 167.9728
2.210690 56.841 167.6223
2.226710 57.046 167.2689
2.242845 57.250 166.9128
2.259098 57.450 166.5544
2.275468 57.648 166.1940
2.291957 57.842 165.8321
2.308566 58.032 165.4689
2.325295 58.219 165.1046
2.342145 58.403 164.7396
2.359117 58.584 164.3738
2.376212 58.762 164.0078
2.393431 58.937 163.6413
2.410775 59.110 163.2747
2.428244 59.282 162.9078
2.445840 59.451 162.5409
2.463564 59.620 162.1739
2.481416 59.787 161.8067
2.499397 59.953 161.4391
2.517509 60.118 161.0711
2.535752 60.283 160.7022
2.554127 60.446 160.3321
2.572635 60.609 159.9603
2.591277 60.770 159.5864
2.610055 60.929 159.2102
2.628968 61.085 158.8317
2.648019 61.240 158.4511
2.667208 61.392 158.0687
2.686535 61.542 157.6850
2.706003 61.691 157.3003
2.725612 61.837 156.9151
2.745363 61.981 156.5299
2.765257 62.123 156.1451
2.785295 62.264 155.7611
2.805478 62.404 155.3783
2.825808 62.542 154.9968
2.846285 62.679 154.6170
2.866910 62.815 154.2388
2.887685 62.950 153.8622
2.908611 63.084 153.4869
2.929688 63.217 153.1124
2.950917 63.349 152.7381
2.972301 63.479 152.3634
2.993839 63.607 151.9880
3.015534 63.734 151.6119
3.037386 63.859 151.2351
3.059396 63.982 150.8581
3.081565 64.104 150.4811
3.103896 64.224 150.1049
3.126388 64.343 149.7296
3.149043 64.461 149.3560
3.171862 64.577 148.9843
3.194847 64.692 148.6151
3.217998 64.807 148.2484
3.241317 64.920 147.8846
3.264805 65.032 147.5235
3.288463 65.144 147.1649
3.312293 65.254 146.8081
3.336295 65.364 146.4528
3.360471 65.472 146.0985
3.384822 65.578 145.7451
3.409350 65.683 145.3925
3.434056 65.787 145.0410
3.458940 65.890 144.6908
3.484005 65.991 144.3424
3.509252 66.092 143.9962
3.534681 66.191 143.6525
3.560295 66.290 143.3116
3.586094 66.387 142.9739
3.612081 66.484 142.6396
3.638255 66.581 142.3084
3.664620 66.676 141.9803
3.691175 66.771 141.6549
3.717923 66.864 141.3318
3.744864 66.957 141.0109
3.772001 67.048 140.6920
3.799335 67.139 140.3751
3.826866 67.228 140.0604
3.854597 67.317 139.7480
3.882529 67.404 139.4384
3.910664 67.492 139.1317
3.939002 67.578 138.8280
3.967546 67.664 138.5275
3.996296 67.749 138.2303
4.025255 67.833 137.9362
4.054423 67.917 137.6451
4.083804 68.000 137.3566
4.113396 68.082 137.0708
4.143204 68.164 136.7875
4.173227 68.244 136.5067
4.203468 68.324 136.2286
4.233928 68.403 135.9534
4.264609 68.482 135.6813
4.295512 68.560 135.4123
4.326639 68.638 135.1466
4.357992 68.715 134.8843
4.389572 68.791 134.6252
4.421380 68.867 134.3693
4.453419 68.942 134.1164
4.485691 69.017 133.8665
4.518196 69.091 133.6195
4.550936 69.164 133.3757
4.583914 69.237 133.1351
4.617131 69.309 132.8981
4.650589 69.381 132.6648
4.684289 69.452 132.4354
4.718233 69.523 132.2100
4.752424 69.594 131.9886
4.786862 69.664 131.7713
4.821549 69.734 131.5579
4.856488 69.803 131.3483
4.891680 69.872 131.1427
4.927127 69.941 130.9411
4.962831 70.009 130.7437
4.998794 70.077 130.5508
5.035017 70.144 130.3627
5.071503 70.212 130.1793
5.108253 70.279 130.0010
5.145270 70.347 129.8278
5.182555 70.414 129.6595
5.220110 70.481 129.4962
5.257937 70.549 129.3377
5.296038 70.616 129.1840
5.334415 70.683 129.0351
5.373071 70.751 128.8908
5.412006 70.819 128.7513
5.451224 70.887 128.6165
5.490725 70.956 128.4865
5.530514 71.025 128.3614
5.570590 71.095 128.2410
5.610957 71.165 128.1251
5.651616 71.236 128.0131
5.692570 71.308 127.9047
5.733821 71.380 127.7992
5.775370 71.453 127.6963
5.817221 71.527 127.5955
5.859375 71.603 127.4968
5.901834 71.679 127.3999
5.944602 71.756 127.3047
5.987679 71.835 127.2106
6.031068 71.914 127.1169
6.074771 71.995 127.0227
6.118792 72.077 126.9270
6.163131 72.160 126.8291
6.207792 72.245 126.7282
6.252776 72.330 126.6243
6.298086 72.417 126.5169
6.343725 72.505 126.4058
6.389694 72.594 126.2902
6.435996 72.685 126.1694
6.482634 72.776 126.0424
6.529610 72.869 125.9083
6.576926 72.962 125.7667
6.624585 73.056 125.6172
6.672590 73.151 125.4597
6.720942 73.247 125.2940
6.769645 73.344 125.1198
6.818700 73.441 124.9368
6.868111 73.539 124.7446
6.917881 73.637 124.5428
6.968010 73.736 124.3312
7.018504 73.834 124.1098
7.069362 73.933 123.8788
7.120590 74.032 123.6384
7.172189 74.131 123.3887
7.224161 74.230 123.1299
7.276511 74.329 122.8621
7.329239 74.428 122.5855
7.382350 74.526 122.3003
7.435845 74.624 122.0067
7.489729 74.722 121.7051
7.544002 74.819 121.3959
7.598669 74.916 121.0795
7.653732 75.013 120.7564
7.709194 75.109 120.4267
7.765058 75.205 120.0907
7.821327 75.300 119.7486
7.878004 75.395 119.4006
7.935091 75.490 119.0470
7.992592 75.584 118.6880
8.050510 75.678 118.3238
8.108847 75.771 117.9545
8.167607 75.865 117.5801
8.226793 75.958 117.2006
8.286408 76.050 116.8157
8.346454 76.143 116.4255
8.406936 76.235 116.0297
8.467856 76.327 115.6284
8.529218 76.419 115.2212
8.591024 76.510 114.8080
8.653278 76.601 114.3886
8.715983 76.692 113.9626
8.779143 76.783 113.5299
8.842760 76.873 113.0901
8.906839 76.962 112.6434
8.971381 77.051 112.1896
9.036392 77.139 111.7288
9.101873 77.226 111.2609
9.167829 77.312 110.7861
9.234263 77.397 110.3046
9.301178 77.481 109.8167
9.368578 77.563 109.3230
9.436467 77.644 108.8242
9.504847 77.724 108.3210
9.573723 77.801 107.8141
9.643099 77.877 107.3043
9.712976 77.952 106.7926
9.783361 78.024 106.2804
9.854255 78.094 105.7689
9.925663 78.163 105.2594
9.997588 78.229 104.7530
10.070035 78.294 104.2509
10.143007 78.357 103.7546
10.216507 78.418 103.2655
10.290540 78.478 102.7848
10.365109 78.536 102.3136
10.440219 78.592 101.8528
10.515873 78.648 101.4033
10.592076 78.703 100.9658
10.668830 78.757 100.5408
10.746141 78.811 100.1288
10.824012 78.864 99.7293
10.902447 78.918 99.3423
10.981451 78.973 98.9672
11.061027 79.027 98.6033
11.141180 79.083 98.2495
11.221913 79.140 97.9045
11.303232 79.198 97.5668
11.385140 79.258 97.2346
11.467641 79.319 96.9064
11.550741 79.381 96.5803
11.634442 79.444 96.2543
11.718750 79.509 95.9267
11.803669 79.576 95.5956
11.889203 79.643 95.2597
11.975357 79.710 94.9177
12.062136 79.779 94.5682
12.149543 79.848 94.2106
12.237583 79.916 93.8442
12.326262 79.985 93.4691
12.415583 80.052 93.0853
12.505552 80.119 92.6930
12.596172 80.185 92.2931
12.687449 80.250 91.8865
12.779387 80.313 91.4743
12.871992 80.375 91.0578
12.965268 80.435 90.6382
13.059220 80.493 90.2171
13.153852 80.549 89.7958
13.249170 80.604 89.3757
13.345179 80.658 88.9579
13.441884 80.710 88.5435
13.539289 80.760 88.1331
13.637401 80.810 87.7277
13.736223 80.858 87.3274
13.835761 80.906 86.9324
13.936021 80.953 86.5427
14.037007 81.000 86.1580
14.138725 81.046 85.7780
14.241180 81.092 85.4020
14.344377 81.138 85.0296
14.448323 81.183 84.6602
14.553021 81.229 84.2931
14.658478 81.275 83.9279
14.764700 81.320 83.5640
14.871691 81.366 83.2011
14.979457 81.411 82.8389
15.088005 81.457 82.4771
15.197339 81.502 82.1156
15.307465 81.548 81.7540
15.418389 81.594 81.3920
15.530117 81.639 81.0292
15.642655 81.686 80.6651
15.756008 81.732 80.2989
15.870182 81.779 79.9297
15.985184 81.826 79.5565
16.101019 81.874 79.1782
16.217694 81.921 78.7936
16.335214 81.969 78.4016
16.453586 82.017 78.0013
16.572815 82.065 77.5921
16.692909 82.112 77.1738
16.813872 82.158 76.7466
16.935713 82.202 76.3114
17.058436 82.245 75.8696
17.182048 82.287 75.4232
17.306556 82.326 74.9746
17.431967 82.363 74.5268
17.558286 82.398 74.0829
17.685521 82.431 73.6460
17.813677 82.462 73.2190
17.942762 82.493 72.8044
18.072783 82.522 72.4042
18.203746 82.551 72.0194
18.335658 82.581 71.6501
18.468526 82.612 71.2954
18.602356 82.644 70.9534
18.737156 82.679 70.6213
18.872934 82.716 70.2958
19.009695 82.755 69.9732
19.147447 82.796 69.6497
19.286197 82.840 69.3219
19.425953 82.885 68.9868
19.566721 82.932 68.6426
19.708510 82.979 68.2881
19.851326 83.027 67.9232
19.995177 83.074 67.5490
20.140070 83.121 67.1669
20.286013 83.167 66.7791
20.433014 83.211 66.3881
20.581080 83.255 65.9961
20.730219 83.297 65.6051
20.880439 83.339 65.2166
21.031747 83.381 64.8313
21.184152 83.422 64.4494
21.337661 83.463 64.0705
21.492282 83.504 63.6934
21.648024 83.546 63.3170
21.804895 83.588 62.9399
21.962902 83.629 62.5608
22.122054 83.671 62.1786
22.282360 83.712 61.7927
22.443827 83.753 61.4029
22.606464 83.793 61.0090
22.770280 83.832 60.6116
22.935283 83.870 60.2113
23.101481 83.907 59.8087
23.268884 83.942 59.4048
23.437500 83.977 59.0004
23.607338 84.010 58.5965
23.778406 84.041 58.1942
23.950714 84.072 57.7943
24.124271 84.101 57.3977
24.299086 84.129 57.0052
24.475167 84.157 56.6173
24.652524 84.184 56.2342
24.831166 84.210 55.8557
25.011103 84.236 55.4812
25.192344 84.262 55.1100
25.374898 84.288 54.7412
25.558775 84.314 54.3739
25.743984 84.340 54.0076
25.930536 84.366 53.6420
26.118439 84.391 53.2774
26.307704 84.417 52.9144
26.498341 84.443 52.5535
26.690359 84.469 52.1949
26.883768 84.495 51.8381
27.078579 84.523 51.4816
27.274801 84.552 51.1227
27.472446 84.582 50.7581
27.671522 84.613 50.3842
27.872042 84.645 49.9976
28.074014 84.677 49.5961
28.277450 84.708 49.1795
28.482360 84.738 48.7496
28.688755 84.765 48.3105
28.896645 84.789 47.8676
29.106042 84.811 47.4272
29.316957 84.831 46.9947
29.529400 84.849 46.5743
29.743382 84.866 46.1678
29.958915 84.884 45.7743
30.176009 84.903 45.3904
30.394677 84.924 45.0116
30.614929 84.946 44.6325
30.836778 84.969 44.2492
31.060234 84.992 43.8591
31.285309 85.016 43.4621
31.512015 85.038 43.0597
31.740364 85.060 42.6551
31.970368 85.080 42.2513
32.202039 85.100 41.8512
32.435388 85.120 41.4557
32.670428 85.139 41.0644
32.907171 85.160 40.6752
33.145630 85.181 40.2856
33.385817 85.202 39.8927
33.627745 85.224 39.4946
33.871425 85.245 39.0908
34.116871 85.266 38.6819
34.364096 85.285 38.2696
34.613113 85.304 37.8564
34.863934 85.321 37.4448
35.116572 85.338 37.0367
35.371041 85.353 36.6335
35.627354 85.369 36.2358
35.885525 85.384 35.8434
36.145566 85.400 35.4558
36.407492 85.416 35.0723
36.671316 85.432 34.6920
36.937051 85.449 34.3140
37.204712 85.466 33.9371
37.474313 85.483 33.5603
37.745867 85.501 33.1820
38.019389 85.519 32.8008
38.294893 85.537 32.4157
38.572394 85.555 32.0263
38.851905 85.572 31.6332
39.133442 85.587 31.2382
39.417019 85.602 30.8435
39.702651 85.616 30.4518
39.990353 85.628 30.0644
40.280140 85.641 29.6817
40.572026 85.653 29.3022
40.866028 85.666 28.9234
41.162160 85.678 28.5427
41.460438 85.690 28.1583
41.760877 85.702 27.7701
42.063494 85.713 27.3793
42.368303 85.723 26.9875
42.675322 85.733 26.5959
42.984565 85.743 26.2039
43.296048 85.752 25.8091
43.609789 85.762 25.4084
43.925804 85.771 24.9999
44.244108 85.779 24.5840
44.564719 85.785 24.1642
44.887654 85.790 23.7466
45.212928 85.792 23.3372
45.540560 85.795 22.9400
45.870565 85.797 22.5553
46.202962 85.801 22.1796
46.537768 85.807 21.8070
46.875000 85.814 21.4315
47.214676 85.823 21.0491
47.556813 85.831 20.6589
47.901429 85.839 20.2625
48.248542 85.846 19.8626
48.598171 85.852 19.4624
48.950334 85.857 19.0641
49.305048 85.860 18.6694
49.662333 85.863 18.2788
50.022206 85.866 17.8921
50.384688 85.868 17.5079
50.749796 85.870 17.1244
51.117550 85.872 16.7393
51.487969 85.873 16.3510
51.861072 85.873 15.9595
52.236879 85.872 15.5657
52.615409 85.871 15.1710
52.996681 85.868 14.7758
53.380717 85.865 14.3795
53.767536 85.862 13.9807
54.157158 85.858 13.5784
54.549603 85.853 13.1731
54.944892 85.848 12.7670
55.343045 85.841 12.3629
55.744084 85.835 11.9634
56.148028 85.828 11.5685
56.554900 85.821 11.1774
56.964720 85.815 10.7883
57.377510 85.809 10.4006
57.793291 85.802 10.0149
58.212085 85.795 9.6323
58.633914 85.787 9.2535
59.058799 85.779 8.8781
59.486764 85.770 8.5044
59.917829 85.761 8.1309
60.352019 85.750 7.7559
60.789354 85.739 7.3787
61.229859 85.726 6.9997
61.673556 85.711 6.6195
62.120468 85.696 6.2385
62.570618 85.679 5.8560
63.024031 85.663 5.4691
63.480729 85.647 5.0745
63.940736 85.630 4.6697
64.404077 85.613 4.2550
64.870776 85.596 3.8326
65.340856 85.577 3.4054
65.814343 85.557 2.9781
66.291261 85.535 2.5592
66.771635 85.511 2.1613
67.255489 85.487 1.7954
67.742850 85.466 1.4639
68.233743 85.449 1.1553
68.728193 85.437 0.8507
69.226226 85.427 0.5358
69.727867 85.417 0.2080
70.233144 85.406 -0.1261
70.742083 85.393 -0.4615
71.254709 85.378 -0.8002
71.771050 85.361 -1.1475
72.291132 85.342 -1.5054
72.814984 85.318 -1.8694
73.342631 85.291 -2.2322
73.874102 85.262 -2.5901
74.409424 85.230 -2.9439
74.948626 85.199 -3.2963
75.491734 85.166 -3.6479
76.038779 85.134 -3.9978
76.589787 85.101 -4.3439
77.144788 85.069 -4.6848
77.703811 85.037 -5.0204
78.266885 85.006 -5.3513
78.834039 84.975 -5.6782
79.405303 84.944 -6.0015
79.980706 84.913 -6.3206
80.560280 84.882 -6.6343
81.144053 84.850 -6.9426
81.732056 84.817 -7.2466
82.324320 84.783 -7.5497
82.920876 84.749 -7.8550
83.521755 84.714 -8.1639
84.126988 84.677 -8.4750
84.736607 84.638 -8.7847
85.350643 84.598 -9.0892
85.969129 84.557 -9.3878
86.592097 84.516 -9.6824
87.219579 84.475 -9.9762
87.851608 84.433 -10.2708
88.488217 84.390 -10.5645
89.129439 84.345 -10.8544
89.775308 84.299 -11.1385
90.425856 84.252 -11.4168
91.081119 84.204 -11.6903
91.741131 84.153 -11.9598
92.405925 84.101 -12.2251
93.075536 84.046 -12.4836
93.750000 83.989 -12.7322
94.429351 83.928 -12.9670
95.113625 83.864 -13.1840
95.802858 83.797 -13.3774
96.497085 83.726 -13.5408
97.196342 83.653 -13.6666
97.900667 83.578 -13.7483
98.610096 83.502 -13.7801
99.324665 83.428 -13.7588
100.044413 83.359 -13.6862
100.769376 83.296 -13.5706
101.499592 83.243 -13.4269
102.235100 83.199 -13.2739
102.975938 83.165 -13.1309
103.722144 83.139 -13.0143
104.473757 83.119 -12.9358
105.230817 83.104 -12.9017
105.993363 83.090 -12.9147
106.761435 83.077 -12.9734
107.535072 83.061 -13.0728
108.314315 83.041 -13.2043
109.099206 83.019 -13.3583
109.889783 82.993 -13.5253
110.686090 82.964 -13.6969
