* Measurement data measured by REW V5.31.3
* Source: Headset (CX31993 HIFI AUDIO), MICROPHONE (Master Volume), R, volume: 0.250
* Format: 256k Log Swept Sine, 1 sweep at -12.0 dBFS with no timing reference
* Dated: 12 31, 24 1:02:21 PM
* REW Settings:
*  C-weighting compensation: Off
*  Target level: 75.0 dB
* Note: ; 
* Measurement: Sony LB 1K MAX L
* Smoothing: 1/12 octave
* Frequency Step: 96 ppo
* Start Frequency: 0.36621094 Hz
*
* Freq(Hz) SPL(dB) Phase(degrees)
0.366211 36.349 -37.9186
0.368865 36.351 -38.0004
0.371538 36.354 -38.1225
0.374230 36.358 -38.2751
0.376942 36.362 -38.4497
0.379673 36.367 -38.6400
0.382424 36.372 -38.8421
0.385196 36.377 -39.0534
0.387987 36.382 -39.2725
0.390798 36.387 -39.4987
0.393630 36.392 -39.7315
0.396483 36.397 -39.9708
0.399356 36.402 -40.2166
0.402250 36.407 -40.4690
0.405165 36.412 -40.7280
0.408101 36.418 -40.9936
0.411058 36.423 -41.2660
0.414037 36.428 -41.5453
0.417037 36.434 -41.8316
0.420059 36.439 -42.1250
0.423103 36.445 -42.4255
0.426169 36.450 -42.7333
0.429257 36.456 -43.0485
0.432368 36.461 -43.3712
0.435501 36.467 -43.7015
0.438656 36.472 -44.0395
0.441835 36.478 -44.3852
0.445037 36.484 -44.7389
0.448262 36.490 -45.1006
0.451510 36.496 -45.4703
0.454782 36.501 -45.8483
0.458077 36.507 -46.2345
0.461397 36.513 -46.6292
0.464740 36.519 -47.0324
0.468108 36.525 -47.4441
0.471500 36.531 -47.8645
0.474917 36.538 -48.2937
0.478358 36.544 -48.7318
0.481825 36.550 -49.1788
0.485316 36.556 -49.6349
0.488833 36.563 -50.1001
0.492375 36.569 -50.5745
0.495943 36.575 -51.0581
0.499537 36.582 -51.5512
0.503157 36.588 -52.0536
0.506803 36.595 -52.5655
0.510475 36.601 -53.0870
0.514175 36.608 -53.6181
0.517900 36.615 -54.1588
0.521653 36.622 -54.7093
0.525434 36.628 -55.2695
0.529241 36.635 -55.8395
0.533076 36.642 -56.4193
0.536939 36.649 -57.0089
0.540830 36.656 -57.6084
0.544749 36.663 -58.2178
0.548696 36.670 -58.8370
0.552673 36.677 -59.4661
0.556677 36.684 -60.1051
0.560711 36.692 -60.7540
0.564774 36.699 -61.4126
0.568867 36.706 -62.0811
0.572989 36.714 -62.7593
0.577141 36.721 -63.4472
0.581324 36.729 -64.1447
0.585536 36.736 -64.8518
0.589779 36.744 -65.5684
0.594053 36.752 -66.2944
0.598358 36.759 -67.0297
0.602694 36.767 -67.7743
0.607061 36.775 -68.5279
0.611460 36.783 -69.2905
0.615891 36.791 -70.0620
0.620354 36.799 -70.8422
0.624849 36.807 -71.6309
0.629377 36.815 -72.4281
0.633938 36.823 -73.2335
0.638532 36.831 -74.0470
0.643159 36.840 -74.8683
0.647819 36.848 -75.6974
0.652514 36.857 -76.5340
0.657242 36.865 -77.3779
0.662005 36.874 -78.2290
0.666802 36.882 -79.0869
0.671634 36.891 -79.9516
0.676501 36.900 -80.8227
0.681403 36.909 -81.7001
0.686341 36.918 -82.5835
0.691314 36.927 -83.4728
0.696324 36.936 -84.3676
0.701370 36.946 -85.2678
0.706452 36.957 -86.1731
0.711571 36.969 -87.0834
0.716728 36.983 -87.9984
0.721921 37.001 -88.9179
0.727153 37.023 -89.8417
0.732422 37.052 -90.7695
0.737729 37.089 -91.7010
0.743075 37.133 -92.6358
0.748460 37.182 -93.5734
0.753883 37.238 -94.5131
0.759346 37.297 -95.4544
0.764849 37.360 -96.3966
0.770391 37.426 -97.3391
0.775974 37.495 -98.2811
0.781597 37.567 -99.2220
0.787261 37.642 -100.1613
0.792966 37.720 -101.0983
0.798712 37.800 -102.0323
0.804500 37.883 -102.9629
0.810329 37.968 -103.8895
0.816201 38.056 -104.8116
0.822116 38.146 -105.7286
0.828073 38.239 -106.6402
0.834074 38.335 -107.5460
0.840118 38.432 -108.4454
0.846206 38.533 -109.3382
0.852338 38.635 -110.2240
0.858514 38.740 -111.1026
0.864735 38.847 -111.9736
0.871001 38.957 -112.8368
0.877313 39.068 -113.6921
0.883670 39.182 -114.5392
0.890074 39.297 -115.3780
0.896524 39.415 -116.2084
0.903020 39.534 -117.0303
0.909564 39.656 -117.8437
0.916155 39.779 -118.6485
0.922794 39.904 -119.4446
0.929481 40.030 -120.2322
0.936216 40.158 -121.0112
0.943000 40.287 -121.7817
0.949834 40.418 -122.5438
0.956717 40.549 -123.2975
0.963649 40.682 -124.0431
0.970632 40.816 -124.7805
0.977666 40.951 -125.5100
0.984750 41.086 -126.2317
0.991886 41.223 -126.9457
0.999074 41.359 -127.6523
1.006314 41.496 -128.3516
1.013606 41.633 -129.0439
1.020951 41.771 -129.7293
1.028349 41.908 -130.4081
1.035801 42.045 -131.0805
1.043307 42.181 -131.7467
1.050867 42.317 -132.4069
1.058482 42.452 -133.0613
1.066152 42.587 -133.7101
1.073878 42.720 -134.3535
1.081660 42.853 -134.9915
1.089498 42.985 -135.6240
1.097393 43.116 -136.2510
1.105345 43.248 -136.8722
1.113355 43.379 -137.4873
1.121423 43.511 -138.0961
1.129549 43.644 -138.6985
1.137734 43.777 -139.2942
1.145979 43.912 -139.8834
1.154283 44.047 -140.4660
1.162647 44.183 -141.0421
1.171072 44.321 -141.6118
1.179558 44.459 -142.1752
1.188106 44.598 -142.7323
1.196715 44.738 -143.2834
1.205387 44.879 -143.8286
1.214122 45.021 -144.3678
1.222920 45.164 -144.9013
1.231782 45.307 -145.4292
1.240708 45.451 -145.9516
1.249699 45.596 -146.4687
1.258754 45.742 -146.9805
1.267876 45.888 -147.4872
1.277063 46.034 -147.9890
1.286318 46.182 -148.4859
1.295639 46.329 -148.9781
1.305027 46.477 -149.4657
1.314484 46.626 -149.9489
1.324009 46.775 -150.4278
1.333604 46.924 -150.9025
1.343268 47.073 -151.3731
1.353002 47.223 -151.8399
1.362806 47.372 -152.3028
1.372681 47.522 -152.7621
1.382628 47.671 -153.2178
1.392647 47.821 -153.6701
1.402739 47.970 -154.1190
1.412904 48.119 -154.5647
1.423142 48.268 -155.0072
1.433455 48.416 -155.4465
1.443843 48.564 -155.8824
1.454305 48.712 -156.3148
1.464844 48.859 -156.7434
1.475459 49.006 -157.1678
1.486150 49.152 -157.5877
1.496920 49.298 -158.0029
1.507767 49.444 -158.4134
1.518693 49.589 -158.8193
1.529698 49.734 -159.2207
1.540783 49.879 -159.6179
1.551948 50.024 -160.0111
1.563194 50.168 -160.4008
1.574521 50.312 -160.7871
1.585931 50.456 -161.1705
1.597423 50.600 -161.5512
1.608999 50.743 -161.9295
1.620658 50.887 -162.3057
1.632402 51.030 -162.6801
1.644232 51.173 -163.0531
1.656146 51.316 -163.4249
1.668147 51.459 -163.7957
1.680235 51.602 -164.1660
1.692411 51.745 -164.5358
1.704675 51.887 -164.9056
1.717028 52.030 -165.2755
1.729470 52.173 -165.6458
1.742003 52.316 -166.0168
1.754626 52.459 -166.3886
1.767341 52.602 -166.7614
1.780147 52.745 -167.1353
1.793047 52.889 -167.5105
1.806040 53.032 -167.8867
1.819128 53.176 -168.2638
1.832310 53.319 -168.6414
1.845587 53.463 -169.0190
1.858961 53.606 -169.3962
1.872432 53.749 -169.7726
1.886001 53.892 -170.1478
1.899667 54.034 -170.5219
1.913433 54.176 -170.8948
1.927299 54.317 -171.2666
1.941265 54.458 -171.6373
1.955332 54.599 -172.0072
1.969501 54.740 -172.3762
1.983773 54.880 -172.7446
1.998148 55.021 -173.1126
2.012627 55.160 -173.4802
2.027212 55.300 -173.8477
2.041902 55.440 -174.2152
2.056698 55.579 -174.5828
2.071602 55.719 -174.9508
2.086614 55.858 -175.3193
2.101734 55.998 -175.6885
2.116964 56.137 -176.0584
2.132304 56.277 -176.4293
2.147756 56.416 -176.8011
2.163320 56.556 -177.1739
2.178996 56.695 -177.5475
2.194786 56.835 -177.9218
2.210690 56.974 -178.2964
2.226710 57.114 -178.6710
2.242845 57.253 -179.0454
2.259098 57.392 -179.4194
2.275468 57.530 -179.7931
2.291957 57.668 179.8336
2.308566 57.806 179.4606
2.325295 57.943 179.0877
2.342145 58.080 178.7148
2.359117 58.217 178.3417
2.376212 58.354 177.9681
2.393431 58.491 177.5940
2.410775 58.627 177.2192
2.428244 58.763 176.8433
2.445840 58.899 176.4664
2.463564 59.035 176.0881
2.481416 59.171 175.7083
2.499397 59.307 175.3270
2.517509 59.443 174.9440
2.535752 59.579 174.5594
2.554127 59.714 174.1733
2.572635 59.850 173.7859
2.591277 59.985 173.3975
2.610055 60.121 173.0084
2.628968 60.255 172.6187
2.648019 60.390 172.2285
2.667208 60.524 171.8376
2.686535 60.658 171.4462
2.706003 60.792 171.0539
2.725612 60.925 170.6607
2.745363 61.058 170.2664
2.765257 61.191 169.8707
2.785295 61.324 169.4736
2.805478 61.456 169.0747
2.825808 61.588 168.6739
2.846285 61.720 168.2711
2.866910 61.852 167.8660
2.887685 61.984 167.4586
2.908611 62.116 167.0490
2.929688 62.247 166.6371
2.950917 62.378 166.2231
2.972301 62.509 165.8074
2.993839 62.640 165.3899
3.015534 62.770 164.9709
3.037386 62.900 164.5503
3.059396 63.029 164.1282
3.081565 63.158 163.7046
3.103896 63.287 163.2793
3.126388 63.416 162.8523
3.149043 63.544 162.4234
3.171862 63.671 161.9926
3.194847 63.799 161.5597
3.217998 63.926 161.1245
3.241317 64.053 160.6870
3.264805 64.180 160.2470
3.288463 64.306 159.8045
3.312293 64.432 159.3595
3.336295 64.557 158.9120
3.360471 64.682 158.4622
3.384822 64.807 158.0102
3.409350 64.931 157.5561
3.434056 65.054 157.0999
3.458940 65.178 156.6417
3.484005 65.300 156.1816
3.509252 65.422 155.7196
3.534681 65.544 155.2557
3.560295 65.665 154.7897
3.586094 65.786 154.3216
3.612081 65.906 153.8513
3.638255 66.026 153.3786
3.664620 66.145 152.9033
3.691175 66.263 152.4253
3.717923 66.381 151.9445
3.744864 66.498 151.4610
3.772001 66.615 150.9750
3.799335 66.731 150.4867
3.826866 66.846 149.9964
3.854597 66.961 149.5044
3.882529 67.075 149.0109
3.910664 67.188 148.5161
3.939002 67.300 148.0203
3.967546 67.412 147.5232
3.996296 67.523 147.0249
4.025255 67.634 146.5250
4.054423 67.743 146.0233
4.083804 67.852 145.5197
4.113396 67.960 145.0139
4.143204 68.067 144.5062
4.173227 68.173 143.9970
4.203468 68.279 143.4867
4.233928 68.383 142.9758
4.264609 68.487 142.4647
4.295512 68.590 141.9538
4.326639 68.692 141.4432
4.357992 68.793 140.9330
4.389572 68.893 140.4231
4.421380 68.992 139.9130
4.453419 69.091 139.4024
4.485691 69.188 138.8912
4.518196 69.284 138.3798
4.550936 69.380 137.8684
4.583914 69.474 137.3576
4.617131 69.568 136.8481
4.650589 69.661 136.3404
4.684289 69.752 135.8350
4.718233 69.843 135.3321
4.752424 69.933 134.8316
4.786862 70.022 134.3334
4.821549 70.110 133.8370
4.856488 70.198 133.3425
4.891680 70.284 132.8498
4.927127 70.369 132.3594
4.962831 70.454 131.8718
4.998794 70.537 131.3876
5.035017 70.620 130.9072
5.071503 70.703 130.4311
5.108253 70.784 129.9594
5.145270 70.865 129.4921
5.182555 70.945 129.0290
5.220110 71.024 128.5699
5.257937 71.103 128.1149
5.296038 71.181 127.6639
5.334415 71.259 127.2173
5.373071 71.336 126.7754
5.412006 71.412 126.3384
5.451224 71.488 125.9068
5.490725 71.564 125.4805
5.530514 71.640 125.0595
5.570590 71.715 124.6438
5.610957 71.790 124.2330
5.651616 71.865 123.8271
5.692570 71.939 123.4258
5.733821 72.014 123.0291
5.775370 72.088 122.6370
5.817221 72.163 122.2494
5.859375 72.238 121.8664
5.901834 72.312 121.4879
5.944602 72.387 121.1136
5.987679 72.462 120.7435
6.031068 72.537 120.3770
6.074771 72.613 120.0136
6.118792 72.688 119.6530
6.163131 72.764 119.2948
6.207792 72.841 118.9387
6.252776 72.918 118.5845
6.298086 72.995 118.2322
6.343725 73.072 117.8815
6.389694 73.150 117.5318
6.435996 73.228 117.1828
6.482634 73.307 116.8338
6.529610 73.386 116.4843
6.576926 73.465 116.1339
6.624585 73.545 115.7824
6.672590 73.624 115.4296
6.720942 73.705 115.0754
6.769645 73.785 114.7195
6.818700 73.866 114.3613
6.868111 73.946 114.0007
6.917881 74.027 113.6371
6.968010 74.108 113.2704
7.018504 74.189 112.9004
7.069362 74.269 112.5271
7.120590 74.350 112.1505
7.172189 74.430 111.7705
7.224161 74.510 111.3872
7.276511 74.590 111.0004
7.329239 74.670 110.6100
7.382350 74.749 110.2162
7.435845 74.827 109.8190
7.489729 74.905 109.4186
7.544002 74.983 109.0153
7.598669 75.060 108.6094
7.653732 75.136 108.2011
7.709194 75.211 107.7907
7.765058 75.286 107.3782
7.821327 75.360 106.9639
7.878004 75.433 106.5483
7.935091 75.506 106.1317
7.992592 75.577 105.7146
8.050510 75.648 105.2974
8.108847 75.718 104.8803
8.167607 75.787 104.4635
8.226793 75.855 104.0474
8.286408 75.923 103.6323
8.346454 75.990 103.2187
8.406936 76.056 102.8068
8.467856 76.122 102.3969
8.529218 76.186 101.9892
8.591024 76.251 101.5838
8.653278 76.314 101.1808
8.715983 76.378 100.7805
8.779143 76.440 100.3829
8.842760 76.503 99.9881
8.906839 76.565 99.5961
8.971381 76.627 99.2068
9.036392 76.689 98.8201
9.101873 76.750 98.4358
9.167829 76.811 98.0538
9.234263 76.873 97.6740
9.301178 76.934 97.2961
9.368578 76.995 96.9198
9.436467 77.056 96.5449
9.504847 77.117 96.1709
9.573723 77.179 95.7977
9.643099 77.240 95.4249
9.712976 77.301 95.0523
9.783361 77.362 94.6796
9.854255 77.424 94.3063
9.925663 77.485 93.9323
9.997588 77.547 93.5574
10.070035 77.608 93.1813
10.143007 77.669 92.8039
10.216507 77.730 92.4250
10.290540 77.791 92.0446
10.365109 77.851 91.6625
10.440219 77.912 91.2788
10.515873 77.972 90.8934
10.592076 78.032 90.5064
10.668830 78.091 90.1179
10.746141 78.150 89.7280
10.824012 78.209 89.3367
10.902447 78.267 88.9442
10.981451 78.325 88.5507
11.061027 78.383 88.1562
11.141180 78.440 87.7610
11.221913 78.496 87.3651
11.303232 78.552 86.9686
11.385140 78.608 86.5717
11.467641 78.663 86.1745
11.550741 78.718 85.7770
11.634442 78.772 85.3793
11.718750 78.826 84.9815
11.803669 78.879 84.5837
11.889203 78.932 84.1860
11.975357 78.985 83.7883
12.062136 79.037 83.3909
12.149543 79.088 82.9939
12.237583 79.139 82.5973
12.326262 79.190 82.2014
12.415583 79.240 81.8063
12.505552 79.290 81.4124
12.596172 79.339 81.0196
12.687449 79.388 80.6284
12.779387 79.436 80.2389
12.871992 79.484 79.8513
12.965268 79.532 79.4658
13.059220 79.579 79.0825
13.153852 79.626 78.7014
13.249170 79.673 78.3225
13.345179 79.720 77.9457
13.441884 79.767 77.5707
13.539289 79.814 77.1972
13.637401 79.860 76.8248
13.736223 79.907 76.4530
13.835761 79.955 76.0813
13.936021 80.002 75.7091
14.037007 80.049 75.3358
14.138725 80.096 74.9610
14.241180 80.143 74.5844
14.344377 80.190 74.2055
14.448323 80.237 73.8244
14.553021 80.283 73.4412
14.658478 80.328 73.0563
14.764700 80.373 72.6701
14.871691 80.417 72.2834
14.979457 80.461 71.8972
15.088005 80.503 71.5124
15.197339 80.545 71.1299
15.307465 80.586 70.7508
15.418389 80.626 70.3759
15.530117 80.666 70.0057
15.642655 80.706 69.6406
15.756008 80.746 69.2804
15.870182 80.787 68.9245
15.985184 80.827 68.5721
16.101019 80.869 68.2217
16.217694 80.911 67.8718
16.335214 80.954 67.5205
16.453586 80.998 67.1658
16.572815 81.042 66.8059
16.692909 81.086 66.4394
16.813872 81.131 66.0652
16.935713 81.174 65.6827
17.058436 81.218 65.2924
17.182048 81.259 64.8951
17.306556 81.299 64.4925
17.431967 81.338 64.0870
17.558286 81.374 63.6814
17.685521 81.408 63.2787
17.813677 81.440 62.8819
17.942762 81.471 62.4935
18.072783 81.501 62.1157
18.203746 81.529 61.7496
18.335658 81.558 61.3953
18.468526 81.587 61.0517
18.602356 81.617 60.7168
18.737156 81.648 60.3876
18.872934 81.680 60.0605
19.009695 81.714 59.7317
19.147447 81.749 59.3979
19.286197 81.783 59.0565
19.425953 81.818 58.7061
19.566721 81.851 58.3470
19.708510 81.883 57.9811
19.851326 81.912 57.6121
19.995177 81.938 57.2449
20.140070 81.961 56.8856
20.286013 81.981 56.5404
20.433014 81.999 56.2154
20.581080 82.016 55.9151
20.730219 82.032 55.6425
20.880439 82.050 55.3979
21.031747 82.071 55.1789
21.184152 82.095 54.9802
21.337661 82.124 54.7940
21.492282 82.159 54.6111
21.648024 82.198 54.4213
21.804895 82.242 54.2151
21.962902 82.290 53.9843
22.122054 82.340 53.7234
22.282360 82.390 53.4297
22.443827 82.439 53.1041
22.606464 82.486 52.7502
22.770280 82.530 52.3739
22.935283 82.569 51.9830
23.101481 82.604 51.5855
23.268884 82.636 51.1891
23.437500 82.664 50.8000
23.607338 82.689 50.4228
23.778406 82.713 50.0595
23.950714 82.736 49.7100
24.124271 82.760 49.3724
24.299086 82.784 49.0437
24.475167 82.809 48.7201
24.652524 82.834 48.3983
24.831166 82.861 48.0757
25.011103 82.887 47.7507
25.192344 82.914 47.4228
25.374898 82.940 47.0923
25.558775 82.966 46.7598
25.743984 82.992 46.4262
25.930536 83.017 46.0916
26.118439 83.043 45.7560
26.307704 83.068 45.4185
26.498341 83.093 45.0783
26.690359 83.118 44.7346
26.883768 83.142 44.3873
27.078579 83.165 44.0370
27.274801 83.187 43.6852
27.472446 83.208 43.3344
27.671522 83.228 42.9873
27.872042 83.246 42.6465
28.074014 83.264 42.3140
28.277450 83.281 41.9908
28.482360 83.299 41.6763
28.688755 83.317 41.3691
28.896645 83.336 41.0665
29.106042 83.356 40.7657
29.316957 83.377 40.4638
29.529400 83.399 40.1585
29.743382 83.421 39.8486
29.958915 83.442 39.5337
30.176009 83.463 39.2143
30.394677 83.483 38.8919
30.614929 83.502 38.5682
30.836778 83.519 38.2450
31.060234 83.536 37.9242
31.285309 83.551 37.6073
31.512015 83.565 37.2955
31.740364 83.579 36.9897
31.970368 83.593 36.6900
32.202039 83.606 36.3962
32.435388 83.619 36.1071
32.670428 83.633 35.8213
32.907171 83.647 35.5367
33.145630 83.662 35.2515
33.385817 83.677 34.9639
33.627745 83.691 34.6728
33.871425 83.706 34.3777
34.116871 83.720 34.0792
34.364096 83.733 33.7780
34.613113 83.746 33.4753
34.863934 83.757 33.1725
35.116572 83.769 32.8702
35.371041 83.780 32.5692
35.627354 83.790 32.2698
35.885525 83.800 31.9721
36.145566 83.810 31.6762
36.407492 83.820 31.3823
36.671316 83.830 31.0905
36.937051 83.840 30.8010
37.204712 83.850 30.5136
37.474313 83.860 30.2281
37.745867 83.871 29.9440
38.019389 83.882 29.6609
38.294893 83.893 29.3782
38.572394 83.904 29.0959
38.851905 83.915 28.8139
39.133442 83.926 28.5324
39.417019 83.937 28.2519
39.702651 83.948 27.9726
39.990353 83.959 27.6949
40.280140 83.969 27.4189
40.572026 83.980 27.1444
40.866028 83.990 26.8708
41.162160 84.000 26.5972
41.460438 84.009 26.3223
41.760877 84.018 26.0457
42.063494 84.026 25.7676
42.368303 84.033 25.4901
42.675322 84.038 25.2159
42.984565 84.042 24.9484
43.296048 84.045 24.6899
43.609789 84.047 24.4408
43.925804 84.051 24.1982
44.244108 84.055 23.9576
44.564719 84.060 23.7137
44.887654 84.066 23.4623
45.212928 84.071 23.2024
45.540560 84.075 22.9357
45.870565 84.077 22.6658
46.202962 84.079 22.3966
46.537768 84.080 22.1306
46.875000 84.081 21.8677
47.214676 84.082 21.6063
47.556813 84.083 21.3442
47.901429 84.085 21.0802
48.248542 84.086 20.8140
48.598171 84.088 20.5463
48.950334 84.089 20.2781
49.305048 84.090 20.0100
49.662333 84.091 19.7424
50.022206 84.092 19.4760
50.384688 84.092 19.2113
50.749796 84.093 18.9495
51.117550 84.092 18.6915
51.487969 84.092 18.4382
51.861072 84.091 18.1898
52.236879 84.090 17.9462
52.615409 84.089 17.7072
52.996681 84.088 17.4722
53.380717 84.087 17.2401
53.767536 84.086 17.0098
54.157158 84.085 16.7797
54.549603 84.083 16.5487
54.944892 84.081 16.3162
55.343045 84.079 16.0818
55.744084 84.075 15.8452
56.148028 84.072 15.6060
56.554900 84.067 15.3641
56.964720 84.061 15.1199
57.377510 84.055 14.8746
57.793291 84.048 14.6303
58.212085 84.040 14.3892
58.633914 84.032 14.1533
59.058799 84.024 13.9235
59.486764 84.017 13.6991
59.917829 84.012 13.4781
60.352019 84.007 13.2579
60.789354 84.004 13.0361
61.229859 84.001 12.8110
61.673556 83.998 12.5822
62.120468 83.995 12.3500
62.570618 83.991 12.1168
63.024031 83.985 11.8861
63.480729 83.977 11.6622
63.940736 83.968 11.4489
64.404077 83.958 11.2477
64.870776 83.947 11.0596
65.340856 83.935 10.8850
65.814343 83.925 10.7232
66.291261 83.917 10.5681
66.771635 83.912 10.4059
67.255489 83.909 10.2188
67.742850 83.907 9.9954
68.233743 83.902 9.7376
68.728193 83.892 9.4601
69.226226 83.878 9.1799
69.727867 83.861 8.9084
70.233144 83.842 8.6506
70.742083 83.822 8.4095
71.254709 83.802 8.1877
71.771050 83.784 7.9850
72.291132 83.768 7.7949
72.814984 83.755 7.6078
73.342631 83.744 7.4161
73.874102 83.733 7.2192
74.409424 83.721 7.0208
74.948626 83.709 6.8248
75.491734 83.695 6.6331
76.038779 83.681 6.4457
76.589787 83.666 6.2625
77.144788 83.650 6.0842
77.703811 83.633 5.9108
78.266885 83.616 5.7403
78.834039 83.599 5.5698
79.405303 83.581 5.3971
79.980706 83.564 5.2222
80.560280 83.546 5.0464
81.144053 83.527 4.8719
81.732056 83.508 4.7001
82.324320 83.489 4.5317
82.920876 83.470 4.3674
83.521755 83.451 4.2074
84.126988 83.432 4.0513
84.736607 83.413 3.8975
85.350643 83.394 3.7441
85.969129 83.375 3.5901
86.592097 83.354 3.4361
87.219579 83.333 3.2834
87.851608 83.311 3.1331
88.488217 83.289 2.9852
89.129439 83.267 2.8385
89.775308 83.244 2.6913
90.425856 83.222 2.5428
91.081119 83.199 2.3933
91.741131 83.176 2.2440
92.405925 83.154 2.0952
93.075536 83.131 1.9468
93.750000 83.109 1.7981
94.429351 83.086 1.6485
95.113625 83.063 1.4979
95.802858 83.040 1.3473
96.497085 83.015 1.1990
97.196342 82.988 1.0563
97.900667 82.961 0.9220
98.610096 82.933 0.7961
99.324665 82.905 0.6763
100.044413 82.876 0.5594
