* Measurement data measured by REW V5.31.3
* Source: Headset (CX31993 HIFI AUDIO), MICROPHONE (Master Volume), R, volume: 0.250
* Format: 256k Log Swept Sine, 1 sweep at -12.0 dBFS with no timing reference
* Dated: 12 31, 24 12:56:52 PM
* REW Settings:
*  C-weighting compensation: Off
*  Target level: 75.0 dB
* Note: ; 
* Measurement: Sony LB Fit Bass Boost L
* Smoothing: 1/12 octave
* Frequency Step: 96 ppo
* Start Frequency: 0.36621094 Hz
*
* Freq(Hz) SPL(dB) Phase(degrees)
0.366211 35.877 -125.3746
0.368865 35.898 -125.4107
0.371538 35.929 -125.4642
0.374230 35.967 -125.5303
0.376942 36.011 -125.6050
0.379673 36.057 -125.6854
0.382424 36.105 -125.7694
0.385196 36.154 -125.8558
0.387987 36.205 -125.9439
0.390798 36.255 -126.0335
0.393630 36.307 -126.1242
0.396483 36.358 -126.2159
0.399356 36.411 -126.3085
0.402250 36.463 -126.4021
0.405165 36.516 -126.4967
0.408101 36.569 -126.5921
0.411058 36.623 -126.6884
0.414037 36.677 -126.7856
0.417037 36.732 -126.8837
0.420059 36.787 -126.9827
0.423103 36.842 -127.0826
0.426169 36.898 -127.1833
0.429257 36.954 -127.2848
0.432368 37.010 -127.3873
0.435501 37.067 -127.4905
0.438656 37.125 -127.5946
0.441835 37.182 -127.6996
0.445037 37.241 -127.8053
0.448262 37.299 -127.9119
0.451510 37.358 -128.0194
0.454782 37.418 -128.1276
0.458077 37.478 -128.2367
0.461397 37.538 -128.3465
0.464740 37.599 -128.4572
0.468108 37.660 -128.5686
0.471500 37.721 -128.6809
0.474917 37.784 -128.7939
0.478358 37.846 -128.9078
0.481825 37.909 -129.0224
0.485316 37.972 -129.1378
0.488833 38.036 -129.2540
0.492375 38.101 -129.3710
0.495943 38.166 -129.4888
0.499537 38.231 -129.6073
0.503157 38.297 -129.7266
0.506803 38.363 -129.8467
0.510475 38.430 -129.9676
0.514175 38.497 -130.0893
0.517900 38.565 -130.2118
0.521653 38.633 -130.3350
0.525434 38.701 -130.4591
0.529241 38.771 -130.5840
0.533076 38.840 -130.7096
0.536939 38.911 -130.8361
0.540830 38.981 -130.9634
0.544749 39.053 -131.0916
0.548696 39.124 -131.2206
0.552673 39.197 -131.3504
0.556677 39.269 -131.4810
0.560711 39.343 -131.6126
0.564774 39.416 -131.7450
0.568867 39.491 -131.8783
0.572989 39.566 -132.0126
0.577141 39.641 -132.1477
0.581324 39.717 -132.2838
0.585536 39.794 -132.4208
0.589779 39.871 -132.5588
0.594053 39.949 -132.6978
0.598358 40.027 -132.8378
0.602694 40.106 -132.9789
0.607061 40.185 -133.1209
0.611460 40.265 -133.2641
0.615891 40.346 -133.4084
0.620354 40.427 -133.5537
0.624849 40.508 -133.7003
0.629377 40.591 -133.8480
0.633938 40.674 -133.9969
0.638532 40.757 -134.1471
0.643159 40.841 -134.2985
0.647819 40.926 -134.4513
0.652514 41.011 -134.6053
0.657242 41.097 -134.7608
0.662005 41.184 -134.9177
0.666802 41.271 -135.0760
0.671634 41.359 -135.2358
0.676501 41.447 -135.3972
0.681403 41.536 -135.5601
0.686341 41.626 -135.7246
0.691314 41.716 -135.8908
0.696324 41.807 -136.0587
0.701370 41.899 -136.2284
0.706452 41.990 -136.3999
0.711571 42.082 -136.5731
0.716728 42.174 -136.7482
0.721921 42.265 -136.9251
0.727153 42.355 -137.1037
0.732422 42.443 -137.2839
0.737729 42.528 -137.4656
0.743075 42.612 -137.6486
0.748460 42.695 -137.8327
0.753883 42.776 -138.0178
0.759346 42.857 -138.2039
0.764849 42.937 -138.3907
0.770391 43.017 -138.5784
0.775974 43.096 -138.7668
0.781597 43.176 -138.9559
0.787261 43.255 -139.1456
0.792966 43.334 -139.3360
0.798712 43.413 -139.5270
0.804500 43.492 -139.7186
0.810329 43.570 -139.9107
0.816201 43.649 -140.1033
0.822116 43.728 -140.2964
0.828073 43.806 -140.4900
0.834074 43.884 -140.6840
0.840118 43.963 -140.8784
0.846206 44.041 -141.0733
0.852338 44.119 -141.2684
0.858514 44.197 -141.4640
0.864735 44.275 -141.6598
0.871001 44.353 -141.8560
0.877313 44.431 -142.0525
0.883670 44.509 -142.2492
0.890074 44.587 -142.4462
0.896524 44.665 -142.6434
0.903020 44.743 -142.8409
0.909564 44.822 -143.0386
0.916155 44.900 -143.2365
0.922794 44.978 -143.4346
0.929481 45.057 -143.6329
0.936216 45.135 -143.8314
0.943000 45.214 -144.0301
0.949834 45.293 -144.2289
0.956717 45.372 -144.4279
0.963649 45.452 -144.6271
0.970632 45.531 -144.8264
0.977666 45.611 -145.0259
0.984750 45.691 -145.2256
0.991886 45.772 -145.4254
0.999074 45.853 -145.6254
1.006314 45.934 -145.8255
1.013606 46.016 -146.0259
1.020951 46.098 -146.2264
1.028349 46.181 -146.4272
1.035801 46.264 -146.6281
1.043307 46.348 -146.8293
1.050867 46.432 -147.0307
1.058482 46.517 -147.2323
1.066152 46.602 -147.4342
1.073878 46.689 -147.6363
1.081660 46.776 -147.8387
1.089498 46.863 -148.0414
1.097393 46.951 -148.2444
1.105345 47.039 -148.4476
1.113355 47.128 -148.6511
1.121423 47.217 -148.8548
1.129549 47.306 -149.0588
1.137734 47.396 -149.2630
1.145979 47.485 -149.4675
1.154283 47.575 -149.6723
1.162647 47.665 -149.8773
1.171072 47.754 -150.0825
1.179558 47.844 -150.2880
1.188106 47.935 -150.4936
1.196715 48.025 -150.6995
1.205387 48.115 -150.9057
1.214122 48.206 -151.1120
1.222920 48.297 -151.3184
1.231782 48.388 -151.5251
1.240708 48.479 -151.7318
1.249699 48.571 -151.9387
1.258754 48.663 -152.1457
1.267876 48.755 -152.3527
1.277063 48.847 -152.5597
1.286318 48.940 -152.7668
1.295639 49.033 -152.9738
1.305027 49.126 -153.1807
1.314484 49.220 -153.3875
1.324009 49.314 -153.5942
1.333604 49.409 -153.8006
1.343268 49.504 -154.0068
1.353002 49.600 -154.2128
1.362806 49.696 -154.4183
1.372681 49.792 -154.6235
1.382628 49.889 -154.8282
1.392647 49.987 -155.0324
1.402739 50.085 -155.2360
1.412904 50.184 -155.4389
1.423142 50.284 -155.6409
1.433455 50.385 -155.8419
1.443843 50.486 -156.0417
1.454305 50.587 -156.2400
1.464844 50.690 -156.4363
1.475459 50.793 -156.6303
1.486150 50.896 -156.8216
1.496920 51.000 -157.0102
1.507767 51.105 -157.1960
1.518693 51.210 -157.3791
1.529698 51.315 -157.5598
1.540783 51.421 -157.7383
1.551948 51.527 -157.9150
1.563194 51.634 -158.0903
1.574521 51.741 -158.2643
1.585931 51.849 -158.4376
1.597423 51.957 -158.6105
1.608999 52.066 -158.7833
1.620658 52.175 -158.9564
1.632402 52.285 -159.1301
1.644232 52.395 -159.3047
1.656146 52.505 -159.4807
1.668147 52.617 -159.6582
1.680235 52.728 -159.8377
1.692411 52.841 -160.0195
1.704675 52.954 -160.2039
1.717028 53.067 -160.3911
1.729470 53.181 -160.5815
1.742003 53.296 -160.7753
1.754626 53.411 -160.9727
1.767341 53.527 -161.1740
1.780147 53.643 -161.3791
1.793047 53.761 -161.5880
1.806040 53.878 -161.8004
1.819128 53.997 -162.0157
1.832310 54.116 -162.2333
1.845587 54.236 -162.4521
1.858961 54.356 -162.6713
1.872432 54.478 -162.8904
1.886001 54.599 -163.1089
1.899667 54.722 -163.3271
1.913433 54.845 -163.5450
1.927299 54.969 -163.7629
1.941265 55.093 -163.9813
1.955332 55.218 -164.2005
1.969501 55.343 -164.4212
1.983773 55.469 -164.6436
1.998148 55.596 -164.8683
2.012627 55.723 -165.0958
2.027212 55.851 -165.3266
2.041902 55.979 -165.5610
2.056698 56.108 -165.7995
2.071602 56.237 -166.0426
2.086614 56.366 -166.2908
2.101734 56.496 -166.5443
2.116964 56.626 -166.8035
2.132304 56.757 -167.0686
2.147756 56.888 -167.3397
2.163320 57.019 -167.6168
2.178996 57.150 -167.8994
2.194786 57.282 -168.1869
2.210690 57.415 -168.4784
2.226710 57.548 -168.7730
2.242845 57.681 -169.0699
2.259098 57.814 -169.3688
2.275468 57.948 -169.6695
2.291957 58.083 -169.9722
2.308566 58.218 -170.2769
2.325295 58.353 -170.5840
2.342145 58.488 -170.8939
2.359117 58.624 -171.2071
2.376212 58.760 -171.5239
2.393431 58.896 -171.8448
2.410775 59.032 -172.1702
2.428244 59.169 -172.5005
2.445840 59.305 -172.8363
2.463564 59.442 -173.1778
2.481416 59.578 -173.5255
2.499397 59.715 -173.8797
2.517509 59.851 -174.2406
2.535752 59.988 -174.6080
2.554127 60.124 -174.9819
2.572635 60.260 -175.3617
2.591277 60.396 -175.7469
2.610055 60.532 -176.1369
2.628968 60.667 -176.5312
2.648019 60.803 -176.9295
2.667208 60.939 -177.3314
2.686535 61.074 -177.7370
2.706003 61.209 -178.1460
2.725612 61.344 -178.5587
2.745363 61.479 -178.9749
2.765257 61.614 -179.3949
2.785295 61.748 -179.8188
2.805478 61.882 179.7534
2.825808 62.015 179.3214
2.846285 62.148 178.8849
2.866910 62.281 178.4438
2.887685 62.413 177.9977
2.908611 62.545 177.5466
2.929688 62.676 177.0902
2.950917 62.807 176.6284
2.972301 62.937 176.1614
2.993839 63.066 175.6893
3.015534 63.195 175.2126
3.037386 63.323 174.7318
3.059396 63.450 174.2472
3.081565 63.577 173.7595
3.103896 63.703 173.2691
3.126388 63.828 172.7765
3.149043 63.953 172.2820
3.171862 64.077 171.7861
3.194847 64.201 171.2889
3.217998 64.323 170.7905
3.241317 64.445 170.2909
3.264805 64.567 169.7898
3.288463 64.687 169.2869
3.312293 64.806 168.7817
3.336295 64.925 168.2736
3.360471 65.043 167.7626
3.384822 65.159 167.2487
3.409350 65.275 166.7323
3.434056 65.390 166.2141
3.458940 65.503 165.6947
3.484005 65.616 165.1750
3.509252 65.728 164.6558
3.534681 65.840 164.1376
3.560295 65.950 163.6212
3.586094 66.060 163.1068
3.612081 66.169 162.5948
3.638255 66.277 162.0850
3.664620 66.384 161.5769
3.691175 66.490 161.0699
3.717923 66.595 160.5635
3.744864 66.699 160.0574
3.772001 66.803 159.5518
3.799335 66.905 159.0469
3.826866 67.006 158.5436
3.854597 67.107 158.0425
3.882529 67.206 157.5444
3.910664 67.306 157.0501
3.939002 67.404 156.5602
3.967546 67.502 156.0754
3.996296 67.600 155.5957
4.025255 67.697 155.1212
4.054423 67.793 154.6515
4.083804 67.889 154.1861
4.113396 67.984 153.7247
4.143204 68.078 153.2670
4.173227 68.172 152.8131
4.203468 68.265 152.3632
4.233928 68.358 151.9174
4.264609 68.450 151.4761
4.295512 68.543 151.0397
4.326639 68.635 150.6086
4.357992 68.728 150.1829
4.389572 68.820 149.7628
4.421380 68.913 149.3482
4.453419 69.005 148.9390
4.485691 69.097 148.5349
4.518196 69.190 148.1354
4.550936 69.282 147.7402
4.583914 69.374 147.3487
4.617131 69.467 146.9605
4.650589 69.560 146.5755
4.684289 69.653 146.1932
4.718233 69.746 145.8138
4.752424 69.840 145.4370
4.786862 69.935 145.0630
4.821549 70.030 144.6920
4.856488 70.126 144.3235
4.891680 70.222 143.9572
4.927127 70.318 143.5923
4.962831 70.415 143.2281
4.998794 70.512 142.8639
5.035017 70.609 142.4987
5.071503 70.707 142.1323
5.108253 70.805 141.7640
5.145270 70.904 141.3940
5.182555 71.003 141.0222
5.220110 71.103 140.6486
5.257937 71.203 140.2732
5.296038 71.303 139.8955
5.334415 71.403 139.5151
5.373071 71.504 139.1315
5.412006 71.604 138.7440
5.451224 71.704 138.3524
5.490725 71.804 137.9561
5.530514 71.904 137.5552
5.570590 72.003 137.1498
5.610957 72.102 136.7401
5.651616 72.201 136.3264
5.692570 72.300 135.9089
5.733821 72.398 135.4881
5.775370 72.495 135.0638
5.817221 72.591 134.6363
5.859375 72.687 134.2053
5.901834 72.781 133.7709
5.944602 72.875 133.3332
5.987679 72.967 132.8927
6.031068 73.059 132.4502
6.074771 73.150 132.0065
6.118792 73.239 131.5625
6.163131 73.327 131.1189
6.207792 73.414 130.6762
6.252776 73.500 130.2345
6.298086 73.585 129.7939
6.343725 73.668 129.3547
6.389694 73.750 128.9177
6.435996 73.831 128.4838
6.482634 73.911 128.0538
6.529610 73.990 127.6288
6.576926 74.068 127.2094
6.624585 74.145 126.7959
6.672590 74.221 126.3883
6.720942 74.297 125.9868
6.769645 74.371 125.5915
6.818700 74.445 125.2028
6.868111 74.519 124.8210
6.917881 74.593 124.4466
6.968010 74.666 124.0797
7.018504 74.740 123.7203
7.069362 74.813 123.3680
7.120590 74.887 123.0225
7.172189 74.961 122.6829
7.224161 75.035 122.3487
7.276511 75.110 122.0193
7.329239 75.186 121.6944
7.382350 75.263 121.3735
7.435845 75.340 121.0558
7.489729 75.418 120.7405
7.544002 75.497 120.4263
7.598669 75.576 120.1118
7.653732 75.657 119.7961
7.709194 75.738 119.4781
7.765058 75.821 119.1573
7.821327 75.904 118.8330
7.878004 75.987 118.5043
7.935091 76.072 118.1703
7.992592 76.156 117.8298
8.050510 76.241 117.4823
8.108847 76.326 117.1271
8.167607 76.411 116.7642
8.226793 76.495 116.3934
8.286408 76.579 116.0148
8.346454 76.663 115.6284
8.406936 76.746 115.2341
8.467856 76.828 114.8322
8.529218 76.909 114.4230
8.591024 76.989 114.0073
8.653278 77.068 113.5859
8.715983 77.145 113.1599
8.779143 77.221 112.7301
8.842760 77.295 112.2973
8.906839 77.367 111.8622
8.971381 77.438 111.4260
9.036392 77.508 110.9898
9.101873 77.575 110.5550
9.167829 77.642 110.1225
9.234263 77.707 109.6932
9.301178 77.770 109.2676
9.368578 77.833 108.8465
9.436467 77.894 108.4306
9.504847 77.955 108.0206
9.573723 78.015 107.6167
9.643099 78.074 107.2192
9.712976 78.134 106.8277
9.783361 78.192 106.4421
9.854255 78.251 106.0620
9.925663 78.310 105.6869
9.997588 78.370 105.3163
10.070035 78.429 104.9493
10.143007 78.490 104.5848
10.216507 78.550 104.2219
10.290540 78.611 103.8594
10.365109 78.673 103.4964
10.440219 78.736 103.1320
10.515873 78.798 102.7651
10.592076 78.861 102.3947
10.668830 78.925 102.0201
10.746141 78.989 101.6405
10.824012 79.052 101.2557
10.902447 79.116 100.8654
10.981451 79.179 100.4693
11.061027 79.242 100.0674
11.141180 79.304 99.6600
11.221913 79.365 99.2475
11.303232 79.426 98.8306
11.385140 79.486 98.4097
11.467641 79.545 97.9856
11.550741 79.602 97.5591
11.634442 79.659 97.1310
11.718750 79.715 96.7022
11.803669 79.770 96.2736
11.889203 79.824 95.8458
11.975357 79.876 95.4194
12.062136 79.929 94.9950
12.149543 79.980 94.5732
12.237583 80.031 94.1541
12.326262 80.082 93.7379
12.415583 80.132 93.3248
12.505552 80.182 92.9145
12.596172 80.232 92.5070
12.687449 80.281 92.1019
12.779387 80.331 91.6990
12.871992 80.381 91.2978
12.965268 80.430 90.8980
13.059220 80.480 90.4992
13.153852 80.530 90.1010
13.249170 80.580 89.7032
13.345179 80.630 89.3054
13.441884 80.680 88.9074
13.539289 80.729 88.5092
13.637401 80.779 88.1104
13.736223 80.829 87.7113
13.835761 80.879 87.3116
13.936021 80.928 86.9114
14.037007 80.978 86.5107
14.138725 81.027 86.1096
14.241180 81.076 85.7082
14.344377 81.125 85.3063
14.448323 81.174 84.9042
14.553021 81.222 84.5018
14.658478 81.271 84.0993
14.764700 81.319 83.6968
14.871691 81.366 83.2944
14.979457 81.414 82.8923
15.088005 81.461 82.4909
15.197339 81.508 82.0903
15.307465 81.554 81.6909
15.418389 81.601 81.2930
15.530117 81.647 80.8969
15.642655 81.693 80.5027
15.756008 81.738 80.1106
15.870182 81.784 79.7205
15.985184 81.830 79.3321
16.101019 81.877 78.9450
16.217694 81.923 78.5584
16.335214 81.970 78.1715
16.453586 82.017 77.7831
16.572815 82.065 77.3919
16.692909 82.113 76.9968
16.813872 82.161 76.5966
16.935713 82.209 76.1900
17.058436 82.257 75.7764
17.182048 82.304 75.3555
17.306556 82.350 74.9274
17.431967 82.395 74.4927
17.558286 82.438 74.0529
17.685521 82.479 73.6096
17.813677 82.518 73.1652
17.942762 82.555 72.7226
18.072783 82.589 72.2847
18.203746 82.621 71.8545
18.335658 82.652 71.4349
18.468526 82.680 71.0284
18.602356 82.708 70.6369
18.737156 82.735 70.2614
18.872934 82.762 69.9022
19.009695 82.790 69.5585
19.147447 82.819 69.2285
19.286197 82.850 68.9099
19.425953 82.882 68.5996
19.566721 82.916 68.2941
19.708510 82.952 67.9901
19.851326 82.990 67.6846
19.995177 83.030 67.3752
20.140070 83.070 67.0600
20.286013 83.111 66.7385
20.433014 83.153 66.4109
20.581080 83.194 66.0780
20.730219 83.235 65.7415
20.880439 83.276 65.4030
21.031747 83.317 65.0642
21.184152 83.358 64.7263
21.337661 83.400 64.3895
21.492282 83.442 64.0533
21.648024 83.486 63.7159
21.804895 83.531 63.3748
21.962902 83.577 63.0268
22.122054 83.625 62.6682
22.282360 83.674 62.2958
22.443827 83.723 61.9068
22.606464 83.772 61.4998
22.770280 83.820 61.0747
22.935283 83.866 60.6330
23.101481 83.910 60.1777
23.268884 83.950 59.7131
23.437500 83.987 59.2443
23.607338 84.021 58.7767
23.778406 84.052 58.3153
23.950714 84.081 57.8645
24.124271 84.107 57.4271
24.299086 84.133 57.0045
24.475167 84.158 56.5964
24.652524 84.184 56.2014
24.831166 84.211 55.8169
25.011103 84.238 55.4397
25.192344 84.266 55.0667
25.374898 84.296 54.6954
25.558775 84.326 54.3237
25.743984 84.356 53.9505
25.930536 84.387 53.5753
26.118439 84.418 53.1982
26.307704 84.449 52.8190
26.498341 84.480 52.4375
26.690359 84.512 52.0532
26.883768 84.543 51.6652
27.078579 84.574 51.2723
27.274801 84.605 50.8740
27.472446 84.635 50.4700
27.671522 84.664 50.0613
27.872042 84.691 49.6499
28.074014 84.717 49.2386
28.277450 84.741 48.8308
28.482360 84.764 48.4296
28.688755 84.786 48.0371
28.896645 84.808 47.6542
29.106042 84.831 47.2797
29.316957 84.854 46.9107
29.529400 84.879 46.5431
29.743382 84.905 46.1722
29.958915 84.932 45.7940
30.176009 84.959 45.4057
30.394677 84.986 45.0064
30.614929 85.011 44.5977
30.836778 85.035 44.1828
31.060234 85.057 43.7659
31.285309 85.077 43.3515
31.512015 85.095 42.9435
31.740364 85.112 42.5441
31.970368 85.129 42.1540
32.202039 85.146 41.7720
32.435388 85.164 41.3958
32.670428 85.182 41.0222
32.907171 85.202 40.6483
33.145630 85.222 40.2714
33.385817 85.243 39.8898
33.627745 85.263 39.5027
33.871425 85.283 39.1102
34.116871 85.303 38.7133
34.364096 85.321 38.3135
34.613113 85.339 37.9125
34.863934 85.356 37.5123
35.116572 85.372 37.1145
35.371041 85.387 36.7205
35.627354 85.402 36.3307
35.885525 85.417 35.9452
36.145566 85.433 35.5629
36.407492 85.449 35.1823
36.671316 85.465 34.8018
36.937051 85.482 34.4196
37.204712 85.499 34.0349
37.474313 85.516 33.6470
37.745867 85.532 33.2564
38.019389 85.548 32.8638
38.294893 85.564 32.4702
38.572394 85.578 32.0767
38.851905 85.593 31.6840
39.133442 85.607 31.2925
39.417019 85.620 30.9022
39.702651 85.634 30.5128
39.990353 85.647 30.1240
40.280140 85.659 29.7353
40.572026 85.672 29.3466
40.866028 85.683 28.9578
41.162160 85.695 28.5691
41.460438 85.706 28.1805
41.760877 85.716 27.7919
42.063494 85.726 27.4028
42.368303 85.736 27.0129
42.675322 85.745 26.6217
42.984565 85.753 26.2294
43.296048 85.761 25.8371
43.609789 85.768 25.4460
43.925804 85.775 25.0577
44.244108 85.781 24.6725
44.564719 85.787 24.2897
44.887654 85.795 23.9075
45.212928 85.802 23.5236
45.540560 85.810 23.1364
45.870565 85.818 22.7449
46.202962 85.826 22.3496
46.537768 85.833 21.9517
46.875000 85.840 21.5518
47.214676 85.847 21.1507
47.556813 85.853 20.7487
47.901429 85.859 20.3461
48.248542 85.864 19.9436
48.598171 85.869 19.5423
48.950334 85.873 19.1425
49.305048 85.877 18.7439
49.662333 85.880 18.3456
50.022206 85.883 17.9465
50.384688 85.885 17.5465
50.749796 85.885 17.1468
51.117550 85.884 16.7493
51.487969 85.882 16.3561
51.861072 85.879 15.9681
52.236879 85.876 15.5850
52.615409 85.873 15.2053
52.996681 85.869 14.8271
53.380717 85.866 14.4486
53.767536 85.863 14.0682
54.157158 85.860 13.6851
54.549603 85.857 13.2985
54.944892 85.853 12.9084
55.343045 85.849 12.5157
55.744084 85.844 12.1216
56.148028 85.838 11.7283
56.554900 85.832 11.3378
56.964720 85.825 10.9523
57.377510 85.817 10.5728
57.793291 85.810 10.1995
58.212085 85.802 9.8317
58.633914 85.794 9.4681
59.058799 85.785 9.1080
59.486764 85.776 8.7510
59.917829 85.767 8.3974
60.352019 85.757 8.0465
60.789354 85.747 7.6964
61.229859 85.737 7.3436
61.673556 85.727 6.9846
62.120468 85.717 6.6173
62.570618 85.706 6.2412
63.024031 85.694 5.8577
63.480729 85.681 5.4688
63.940736 85.667 5.0765
64.404077 85.654 4.6808
64.870776 85.640 4.2800
65.340856 85.626 3.8712
65.814343 85.610 3.4553
66.291261 85.592 3.0401
66.771635 85.570 2.6409
67.255489 85.546 2.2739
67.742850 85.522 1.9467
68.233743 85.501 1.6524
68.728193 85.484 1.3743
69.226226 85.470 1.0956
69.727867 85.459 0.8073
70.233144 85.447 0.5073
70.742083 85.434 0.1955
71.254709 85.421 -0.1299
71.771050 85.405 -0.4700
72.291132 85.385 -0.8211
72.814984 85.363 -1.1758
73.342631 85.337 -1.5266
73.874102 85.310 -1.8705
74.409424 85.283 -2.2087
74.948626 85.255 -2.5435
75.491734 85.227 -2.8757
76.038779 85.199 -3.2042
76.589787 85.172 -3.5273
77.144788 85.145 -3.8449
77.703811 85.118 -4.1587
78.266885 85.091 -4.4707
78.834039 85.064 -4.7820
79.405303 85.036 -5.0924
79.980706 85.007 -5.4016
80.560280 84.977 -5.7103
81.144053 84.945 -6.0189
81.732056 84.911 -6.3268
82.324320 84.876 -6.6315
82.920876 84.840 -6.9308
83.521755 84.804 -7.2237
84.126988 84.767 -7.5104
84.736607 84.731 -7.7917
85.350643 84.695 -8.0681
85.969129 84.661 -8.3397
86.592097 84.626 -8.6073
87.219579 84.593 -8.8715
87.851608 84.559 -9.1332
88.488217 84.525 -9.3938
89.129439 84.490 -9.6541
89.775308 84.454 -9.9142
90.425856 84.416 -10.1727
91.081119 84.377 -10.4279
91.741131 84.336 -10.6790
92.405925 84.295 -10.9270
93.075536 84.253 -11.1743
93.750000 84.211 -11.4233
