* Measurement data measured by REW V5.31.3
* Source: Headset (CX31993 HIFI AUDIO), MICROPHONE (Master Volume), R, volume: 0.250
* Format: 256k Log Swept Sine, 1 sweep at -12.0 dBFS with no timing reference
* Dated: 12 31, 24 12:53:21 PM
* REW Settings:
*  C-weighting compensation: Off
*  Target level: 75.0 dB
* Note: ; 
* Measurement: Sony Linkbuds Fit R
* Smoothing: 1/12 octave
* Frequency Step: 96 ppo
* Start Frequency: 0.36621094 Hz
*
* Freq(Hz) SPL(dB) Phase(degrees)
0.366211 30.639 -85.3618
0.368865 30.679 -85.3445
0.371538 30.738 -85.3175
0.374230 30.811 -85.2819
0.376942 30.893 -85.2384
0.379673 30.980 -85.1876
0.382424 31.072 -85.1301
0.385196 31.165 -85.0663
0.387987 31.260 -84.9965
0.390798 31.356 -84.9210
0.393630 31.453 -84.8400
0.396483 31.551 -84.7540
0.399356 31.650 -84.6631
0.402250 31.749 -84.5676
0.405165 31.849 -84.4677
0.408101 31.950 -84.3638
0.411058 32.051 -84.2561
0.414037 32.153 -84.1448
0.417037 32.256 -84.0303
0.420059 32.360 -83.9129
0.423103 32.465 -83.7927
0.426169 32.570 -83.6701
0.429257 32.676 -83.5454
0.432368 32.783 -83.4188
0.435501 32.890 -83.2905
0.438656 32.999 -83.1610
0.441835 33.108 -83.0304
0.445037 33.218 -82.8989
0.448262 33.329 -82.7670
0.451510 33.440 -82.6348
0.454782 33.552 -82.5025
0.458077 33.666 -82.3706
0.461397 33.780 -82.2391
0.464740 33.894 -82.1084
0.468108 34.010 -81.9787
0.471500 34.126 -81.8503
0.474917 34.244 -81.7234
0.478358 34.362 -81.5982
0.481825 34.481 -81.4749
0.485316 34.601 -81.3539
0.488833 34.722 -81.2353
0.492375 34.843 -81.1194
0.495943 34.966 -81.0063
0.499537 35.089 -80.8964
0.503157 35.214 -80.7897
0.506803 35.339 -80.6866
0.510475 35.465 -80.5871
0.514175 35.592 -80.4916
0.517900 35.720 -80.4001
0.521653 35.849 -80.3130
0.525434 35.979 -80.2303
0.529241 36.109 -80.1523
0.533076 36.241 -80.0792
0.536939 36.374 -80.0110
0.540830 36.507 -79.9481
0.544749 36.642 -79.8905
0.548696 36.778 -79.8385
0.552673 36.914 -79.7921
0.556677 37.052 -79.7516
0.560711 37.190 -79.7170
0.564774 37.330 -79.6887
0.568867 37.470 -79.6666
0.572989 37.612 -79.6510
0.577141 37.755 -79.6420
0.581324 37.898 -79.6397
0.585536 38.043 -79.6443
0.589779 38.189 -79.6559
0.594053 38.336 -79.6747
0.598358 38.484 -79.7007
0.602694 38.633 -79.7342
0.607061 38.783 -79.7752
0.611460 38.934 -79.8239
0.615891 39.086 -79.8804
0.620354 39.239 -79.9449
0.624849 39.394 -80.0174
0.629377 39.549 -80.0980
0.633938 39.706 -80.1870
0.638532 39.864 -80.2844
0.643159 40.023 -80.3904
0.647819 40.183 -80.5051
0.652514 40.344 -80.6285
0.657242 40.507 -80.7608
0.662005 40.670 -80.9022
0.666802 40.835 -81.0528
0.671634 41.001 -81.2126
0.676501 41.168 -81.3817
0.681403 41.337 -81.5604
0.686341 41.506 -81.7487
0.691314 41.677 -81.9467
0.696324 41.849 -82.1544
0.701370 42.021 -82.3718
0.706452 42.194 -82.5989
0.711571 42.367 -82.8355
0.716728 42.538 -83.0810
0.721921 42.708 -83.3347
0.727153 42.875 -83.5954
0.732422 43.036 -83.8614
0.737729 43.193 -84.1306
0.743075 43.345 -84.4013
0.748460 43.493 -84.6717
0.753883 43.638 -84.9408
0.759346 43.781 -85.2079
0.764849 43.923 -85.4728
0.770391 44.064 -85.7353
0.775974 44.204 -85.9956
0.781597 44.344 -86.2537
0.787261 44.482 -86.5099
0.792966 44.620 -86.7644
0.798712 44.758 -87.0173
0.804500 44.895 -87.2691
0.810329 45.031 -87.5199
0.816201 45.167 -87.7700
0.822116 45.302 -88.0196
0.828073 45.436 -88.2691
0.834074 45.570 -88.5186
0.840118 45.704 -88.7685
0.846206 45.837 -89.0190
0.852338 45.969 -89.2703
0.858514 46.101 -89.5229
0.864735 46.233 -89.7768
0.871001 46.364 -90.0325
0.877313 46.495 -90.2901
0.883670 46.625 -90.5499
0.890074 46.755 -90.8123
0.896524 46.884 -91.0775
0.903020 47.014 -91.3457
0.909564 47.142 -91.6172
0.916155 47.271 -91.8924
0.922794 47.399 -92.1714
0.929481 47.527 -92.4547
0.936216 47.655 -92.7423
0.943000 47.783 -93.0348
0.949834 47.911 -93.3322
0.956717 48.039 -93.6349
0.963649 48.166 -93.9432
0.970632 48.294 -94.2574
0.977666 48.421 -94.5778
0.984750 48.549 -94.9047
0.991886 48.677 -95.2383
0.999074 48.805 -95.5791
1.006314 48.934 -95.9272
1.013606 49.062 -96.2830
1.020951 49.192 -96.6468
1.028349 49.321 -97.0190
1.035801 49.451 -97.3998
1.043307 49.582 -97.7895
1.050867 49.713 -98.1885
1.058482 49.845 -98.5968
1.066152 49.978 -99.0149
1.073878 50.112 -99.4425
1.081660 50.246 -99.8797
1.089498 50.381 -100.3259
1.097393 50.516 -100.7804
1.105345 50.651 -101.2422
1.113355 50.787 -101.7102
1.121423 50.922 -102.1832
1.129549 51.057 -102.6603
1.137734 51.192 -103.1410
1.145979 51.327 -103.6246
1.154283 51.460 -104.1108
1.162647 51.594 -104.5994
1.171072 51.727 -105.0899
1.179558 51.859 -105.5824
1.188106 51.992 -106.0765
1.196715 52.123 -106.5723
1.205387 52.255 -107.0696
1.214122 52.386 -107.5682
1.222920 52.516 -108.0683
1.231782 52.646 -108.5697
1.240708 52.776 -109.0723
1.249699 52.906 -109.5763
1.258754 53.035 -110.0816
1.267876 53.164 -110.5883
1.277063 53.293 -111.0964
1.286318 53.421 -111.6060
1.295639 53.550 -112.1172
1.305027 53.678 -112.6301
1.314484 53.806 -113.1449
1.324009 53.934 -113.6615
1.333604 54.062 -114.1804
1.343268 54.190 -114.7015
1.353002 54.317 -115.2251
1.362806 54.445 -115.7513
1.372681 54.573 -116.2805
1.382628 54.702 -116.8129
1.392647 54.830 -117.3486
1.402739 54.959 -117.8880
1.412904 55.087 -118.4313
1.423142 55.217 -118.9787
1.433455 55.346 -119.5304
1.443843 55.476 -120.0865
1.454305 55.605 -120.6471
1.464844 55.735 -121.2119
1.475459 55.865 -121.7807
1.486150 55.995 -122.3531
1.496920 56.125 -122.9287
1.507767 56.254 -123.5071
1.518693 56.383 -124.0881
1.529698 56.511 -124.6713
1.540783 56.639 -125.2566
1.551948 56.766 -125.8437
1.563194 56.894 -126.4327
1.574521 57.020 -127.0235
1.585931 57.147 -127.6159
1.597423 57.273 -128.2100
1.608999 57.398 -128.8057
1.620658 57.523 -129.4032
1.632402 57.648 -130.0025
1.644232 57.773 -130.6037
1.656146 57.897 -131.2069
1.668147 58.021 -131.8121
1.680235 58.145 -132.4197
1.692411 58.269 -133.0298
1.704675 58.392 -133.6425
1.717028 58.516 -134.2582
1.729470 58.639 -134.8771
1.742003 58.762 -135.4994
1.754626 58.885 -136.1255
1.767341 59.008 -136.7558
1.780147 59.131 -137.3906
1.793047 59.254 -138.0303
1.806040 59.377 -138.6754
1.819128 59.500 -139.3264
1.832310 59.623 -139.9835
1.845587 59.745 -140.6471
1.858961 59.867 -141.3173
1.872432 59.989 -141.9937
1.886001 60.110 -142.6762
1.899667 60.230 -143.3641
1.913433 60.350 -144.0568
1.927299 60.470 -144.7538
1.941265 60.589 -145.4543
1.955332 60.708 -146.1580
1.969501 60.826 -146.8640
1.983773 60.943 -147.5720
1.998148 61.060 -148.2815
2.012627 61.177 -148.9921
2.027212 61.293 -149.7032
2.041902 61.409 -150.4147
2.056698 61.525 -151.1262
2.071602 61.640 -151.8376
2.086614 61.755 -152.5485
2.101734 61.870 -153.2590
2.116964 61.984 -153.9689
2.132304 62.098 -154.6785
2.147756 62.212 -155.3880
2.163320 62.326 -156.0979
2.178996 62.439 -156.8088
2.194786 62.552 -157.5217
2.210690 62.664 -158.2376
2.226710 62.776 -158.9573
2.242845 62.888 -159.6814
2.259098 62.998 -160.4099
2.275468 63.108 -161.1426
2.291957 63.218 -161.8791
2.308566 63.327 -162.6188
2.325295 63.435 -163.3608
2.342145 63.542 -164.1046
2.359117 63.649 -164.8493
2.376212 63.756 -165.5944
2.393431 63.861 -166.3390
2.410775 63.967 -167.0826
2.428244 64.072 -167.8246
2.445840 64.176 -168.5645
2.463564 64.280 -169.3018
2.481416 64.383 -170.0363
2.499397 64.487 -170.7678
2.517509 64.589 -171.4965
2.535752 64.692 -172.2228
2.554127 64.794 -172.9476
2.572635 64.895 -173.6720
2.591277 64.996 -174.3972
2.610055 65.096 -175.1241
2.628968 65.196 -175.8532
2.648019 65.294 -176.5845
2.667208 65.392 -177.3178
2.686535 65.489 -178.0524
2.706003 65.586 -178.7878
2.725612 65.682 -179.5230
2.745363 65.777 179.7427
2.765257 65.872 179.0101
2.785295 65.966 178.2801
2.805478 66.060 177.5533
2.825808 66.153 176.8307
2.846285 66.246 176.1125
2.866910 66.339 175.3994
2.887685 66.431 174.6912
2.908611 66.523 173.9876
2.929688 66.614 173.2880
2.950917 66.705 172.5914
2.972301 66.795 171.8967
2.993839 66.885 171.2033
3.015534 66.974 170.5107
3.037386 67.062 169.8191
3.059396 67.150 169.1286
3.081565 67.237 168.4399
3.103896 67.324 167.7534
3.126388 67.410 167.0699
3.149043 67.496 166.3902
3.171862 67.581 165.7149
3.194847 67.667 165.0446
3.217998 67.752 164.3800
3.241317 67.837 163.7214
3.264805 67.922 163.0690
3.288463 68.007 162.4226
3.312293 68.091 161.7817
3.336295 68.176 161.1457
3.360471 68.260 160.5139
3.384822 68.343 159.8860
3.409350 68.426 159.2617
3.434056 68.509 158.6409
3.458940 68.592 158.0239
3.484005 68.675 157.4107
3.509252 68.757 156.8016
3.534681 68.840 156.1968
3.560295 68.923 155.5968
3.586094 69.006 155.0018
3.612081 69.089 154.4120
3.638255 69.172 153.8275
3.664620 69.255 153.2485
3.691175 69.339 152.6748
3.717923 69.423 152.1061
3.744864 69.507 151.5422
3.772001 69.591 150.9828
3.799335 69.675 150.4274
3.826866 69.759 149.8759
3.854597 69.844 149.3279
3.882529 69.928 148.7832
3.910664 70.013 148.2416
3.939002 70.099 147.7029
3.967546 70.185 147.1671
3.996296 70.271 146.6343
4.025255 70.358 146.1043
4.054423 70.445 145.5774
4.083804 70.533 145.0536
4.113396 70.621 144.5327
4.143204 70.709 144.0146
4.173227 70.798 143.4990
4.203468 70.887 142.9854
4.233928 70.976 142.4733
4.264609 71.066 141.9624
4.295512 71.156 141.4521
4.326639 71.247 140.9420
4.357992 71.338 140.4321
4.389572 71.429 139.9221
4.421380 71.520 139.4121
4.453419 71.612 138.9022
4.485691 71.704 138.3924
4.518196 71.796 137.8828
4.550936 71.889 137.3731
4.583914 71.981 136.8633
4.617131 72.074 136.3533
4.650589 72.167 135.8426
4.684289 72.260 135.3311
4.718233 72.352 134.8185
4.752424 72.445 134.3046
4.786862 72.538 133.7892
4.821549 72.630 133.2724
4.856488 72.722 132.7543
4.891680 72.815 132.2350
4.927127 72.907 131.7150
4.962831 72.998 131.1943
4.998794 73.090 130.6733
5.035017 73.181 130.1521
5.071503 73.271 129.6307
5.108253 73.362 129.1090
5.145270 73.451 128.5869
5.182555 73.540 128.0643
5.220110 73.629 127.5412
5.257937 73.717 127.0179
5.296038 73.804 126.4948
5.334415 73.891 125.9725
5.373071 73.978 125.4515
5.412006 74.063 124.9323
5.451224 74.149 124.4152
5.490725 74.233 123.9002
5.530514 74.317 123.3873
5.570590 74.400 122.8763
5.610957 74.482 122.3674
5.651616 74.564 121.8608
5.692570 74.645 121.3570
5.733821 74.726 120.8565
5.775370 74.806 120.3599
5.817221 74.885 119.8675
5.859375 74.964 119.3795
5.901834 75.043 118.8959
5.944602 75.120 118.4165
5.987679 75.198 117.9414
6.031068 75.275 117.4707
6.074771 75.351 117.0045
6.118792 75.428 116.5429
6.163131 75.504 116.0864
6.207792 75.580 115.6349
6.252776 75.655 115.1885
6.298086 75.731 114.7473
6.343725 75.806 114.3108
6.389694 75.881 113.8791
6.435996 75.957 113.4518
6.482634 76.032 113.0287
6.529610 76.107 112.6099
6.576926 76.182 112.1950
6.624585 76.258 111.7841
6.672590 76.333 111.3770
6.720942 76.409 110.9734
6.769645 76.485 110.5730
6.818700 76.561 110.1753
6.868111 76.637 109.7801
6.917881 76.714 109.3869
6.968010 76.790 108.9955
7.018504 76.867 108.6058
7.069362 76.944 108.2175
7.120590 77.021 107.8303
7.172189 77.099 107.4440
7.224161 77.176 107.0581
7.276511 77.254 106.6723
7.329239 77.331 106.2863
7.382350 77.409 105.9001
7.435845 77.486 105.5134
7.489729 77.564 105.1260
7.544002 77.642 104.7379
7.598669 77.719 104.3488
7.653732 77.797 103.9586
7.709194 77.874 103.5670
7.765058 77.951 103.1740
7.821327 78.028 102.7796
7.878004 78.104 102.3836
7.935091 78.180 101.9861
7.992592 78.256 101.5870
8.050510 78.332 101.1863
8.108847 78.407 100.7838
8.167607 78.482 100.3796
8.226793 78.556 99.9738
8.286408 78.630 99.5662
8.346454 78.703 99.1570
8.406936 78.776 98.7462
8.467856 78.848 98.3337
8.529218 78.919 97.9197
8.591024 78.990 97.5042
8.653278 79.060 97.0874
8.715983 79.129 96.6693
8.779143 79.198 96.2501
8.842760 79.266 95.8299
8.906839 79.333 95.4089
8.971381 79.399 94.9872
9.036392 79.464 94.5652
9.101873 79.528 94.1432
9.167829 79.592 93.7215
9.234263 79.654 93.3003
9.301178 79.716 92.8799
9.368578 79.776 92.4608
9.436467 79.836 92.0432
9.504847 79.895 91.6278
9.573723 79.952 91.2149
9.643099 80.009 90.8046
9.712976 80.066 90.3974
9.783361 80.121 89.9937
9.854255 80.176 89.5936
9.925663 80.230 89.1974
9.997588 80.284 88.8054
10.070035 80.337 88.4174
10.143007 80.390 88.0334
10.216507 80.443 87.6532
10.290540 80.496 87.2767
10.365109 80.549 86.9036
10.440219 80.601 86.5334
10.515873 80.655 86.1654
10.592076 80.708 85.7990
10.668830 80.761 85.4335
10.746141 80.815 85.0682
10.824012 80.869 84.7024
10.902447 80.924 84.3351
10.981451 80.978 83.9656
11.061027 81.033 83.5931
11.141180 81.088 83.2171
11.221913 81.143 82.8371
11.303232 81.198 82.4527
11.385140 81.252 82.0636
11.467641 81.306 81.6698
11.550741 81.360 81.2715
11.634442 81.413 80.8690
11.718750 81.465 80.4629
11.803669 81.516 80.0538
11.889203 81.566 79.6424
11.975357 81.616 79.2297
12.062136 81.664 78.8167
12.149543 81.711 78.4043
12.237583 81.758 77.9933
12.326262 81.803 77.5847
12.415583 81.848 77.1790
12.505552 81.893 76.7767
12.596172 81.937 76.3780
12.687449 81.981 75.9827
12.779387 82.026 75.5905
12.871992 82.070 75.2008
12.965268 82.115 74.8125
13.059220 82.161 74.4246
13.153852 82.207 74.0355
13.249170 82.253 73.6439
13.345179 82.300 73.2483
13.441884 82.348 72.8475
13.539289 82.395 72.4402
13.637401 82.443 72.0255
13.736223 82.490 71.6030
13.835761 82.536 71.1729
13.936021 82.581 70.7354
14.037007 82.625 70.2916
14.138725 82.667 69.8430
14.241180 82.707 69.3917
14.344377 82.746 68.9400
14.448323 82.782 68.4904
14.553021 82.816 68.0457
14.658478 82.848 67.6084
14.764700 82.879 67.1811
14.871691 82.909 66.7655
14.979457 82.937 66.3631
15.088005 82.966 65.9747
15.197339 82.994 65.6000
15.307465 83.024 65.2379
15.418389 83.055 64.8867
15.530117 83.087 64.5437
15.642655 83.121 64.2057
15.756008 83.157 63.8690
15.870182 83.195 63.5300
15.985184 83.235 63.1852
16.101019 83.276 62.8316
16.217694 83.317 62.4669
16.335214 83.358 62.0900
16.453586 83.399 61.7008
16.572815 83.439 61.3003
16.692909 83.476 60.8908
16.813872 83.511 60.4755
16.935713 83.544 60.0582
17.058436 83.574 59.6433
17.182048 83.601 59.2350
17.306556 83.627 58.8375
17.431967 83.650 58.4538
17.558286 83.672 58.0861
17.685521 83.695 57.7352
17.813677 83.717 57.4006
17.942762 83.741 57.0799
18.072783 83.767 56.7697
18.203746 83.794 56.4658
18.335658 83.824 56.1631
18.468526 83.856 55.8565
18.602356 83.890 55.5417
18.737156 83.924 55.2153
18.872934 83.959 54.8753
19.009695 83.992 54.5214
19.147447 84.025 54.1552
19.286197 84.055 53.7795
19.425953 84.082 53.3990
19.566721 84.106 53.0189
19.708510 84.127 52.6445
19.851326 84.146 52.2812
19.995177 84.162 51.9334
20.140070 84.178 51.6039
20.286013 84.193 51.2941
20.433014 84.208 51.0033
20.581080 84.226 50.7291
20.730219 84.245 50.4677
20.880439 84.267 50.2142
21.031747 84.291 49.9635
21.184152 84.317 49.7107
21.337661 84.346 49.4518
21.492282 84.376 49.1840
21.648024 84.406 48.9061
21.804895 84.437 48.6184
21.962902 84.468 48.3224
22.122054 84.497 48.0202
22.282360 84.527 47.7142
22.443827 84.555 47.4066
22.606464 84.584 47.0986
22.770280 84.612 46.7906
22.935283 84.641 46.4815
23.101481 84.671 46.1696
23.268884 84.701 45.8523
23.437500 84.732 45.5271
23.607338 84.762 45.1920
23.778406 84.792 44.8461
23.950714 84.822 44.4901
24.124271 84.849 44.1258
24.299086 84.875 43.7566
24.475167 84.898 43.3869
24.652524 84.919 43.0209
24.831166 84.939 42.6623
25.011103 84.958 42.3135
25.192344 84.977 41.9749
25.374898 84.996 41.6443
25.558775 85.017 41.3178
25.743984 85.039 40.9898
25.930536 85.063 40.6545
26.118439 85.088 40.3065
26.307704 85.112 39.9425
26.498341 85.135 39.5623
26.690359 85.154 39.1691
26.883768 85.170 38.7693
27.078579 85.182 38.3724
27.274801 85.188 37.9890
27.472446 85.192 37.6293
27.671522 85.192 37.3017
27.872042 85.193 37.0106
28.074014 85.195 36.7558
28.277450 85.201 36.5320
28.482360 85.211 36.3293
28.688755 85.228 36.1353
28.896645 85.250 35.9366
29.106042 85.276 35.7219
29.316957 85.306 35.4830
29.529400 85.337 35.2165
29.743382 85.367 34.9236
29.958915 85.396 34.6091
30.176009 85.422 34.2803
30.394677 85.445 33.9447
30.614929 85.466 33.6086
30.836778 85.484 33.2765
31.060234 85.502 32.9505
31.285309 85.518 32.6306
31.512015 85.533 32.3161
31.740364 85.548 32.0060
31.970368 85.562 31.6999
32.202039 85.575 31.3984
32.435388 85.588 31.1025
32.670428 85.600 30.8136
32.907171 85.611 30.5320
33.145630 85.623 30.2569
33.385817 85.635 29.9863
33.627745 85.648 29.7173
33.871425 85.661 29.4467
34.116871 85.675 29.1720
34.364096 85.688 28.8919
34.613113 85.701 28.6062
34.863934 85.713 28.3159
35.116572 85.724 28.0229
35.371041 85.733 27.7290
35.627354 85.742 27.4357
35.885525 85.750 27.1442
36.145566 85.757 26.8550
36.407492 85.764 26.5684
36.671316 85.771 26.2841
36.937051 85.777 26.0022
37.204712 85.784 25.7225
37.474313 85.790 25.4449
37.745867 85.797 25.1692
38.019389 85.804 24.8947
38.294893 85.811 24.6208
38.572394 85.819 24.3468
38.851905 85.827 24.0715
39.133442 85.835 23.7943
39.417019 85.844 23.5146
39.702651 85.852 23.2330
39.990353 85.860 22.9502
40.280140 85.867 22.6679
40.572026 85.873 22.3881
40.866028 85.879 22.1124
41.162160 85.884 21.8417
41.460438 85.889 21.5762
41.760877 85.895 21.3151
42.063494 85.900 21.0568
42.368303 85.906 20.7999
42.675322 85.912 20.5424
42.984565 85.918 20.2826
43.296048 85.923 20.0189
43.609789 85.928 19.7501
43.925804 85.933 19.4760
44.244108 85.935 19.1974
44.564719 85.936 18.9169
44.887654 85.936 18.6375
45.212928 85.934 18.3619
45.540560 85.931 18.0917
45.870565 85.927 17.8267
46.202962 85.924 17.5658
46.537768 85.920 17.3083
46.875000 85.916 17.0549
47.214676 85.912 16.8076
47.556813 85.908 16.5685
47.901429 85.905 16.3379
48.248542 85.903 16.1134
48.598171 85.904 15.8900
48.950334 85.907 15.6623
49.305048 85.911 15.4264
49.662333 85.915 15.1821
50.022206 85.919 14.9321
50.384688 85.922 14.6810
50.749796 85.924 14.4326
51.117550 85.926 14.1884
51.487969 85.928 13.9476
51.861072 85.931 13.7076
52.236879 85.933 13.4662
52.615409 85.935 13.2218
52.996681 85.936 12.9745
53.380717 85.935 12.7256
53.767536 85.934 12.4766
54.157158 85.931 12.2286
54.549603 85.927 11.9828
54.944892 85.922 11.7393
55.343045 85.917 11.4985
55.744084 85.911 11.2601
56.148028 85.905 11.0239
56.554900 85.899 10.7885
56.964720 85.894 10.5521
57.377510 85.888 10.3132
57.793291 85.883 10.0715
58.212085 85.878 9.8285
58.633914 85.872 9.5865
59.058799 85.866 9.3480
59.486764 85.860 9.1138
59.917829 85.854 8.8842
60.352019 85.848 8.6595
60.789354 85.841 8.4413
61.229859 85.834 8.2319
61.673556 85.826 8.0333
62.120468 85.819 7.8453
62.570618 85.811 7.6661
63.024031 85.803 7.4939
63.480729 85.795 7.3271
63.940736 85.787 7.1646
64.404077 85.779 7.0031
64.870776 85.770 6.8394
65.340856 85.761 6.6724
65.814343 85.751 6.5035
66.291261 85.742 6.3341
66.771635 85.733 6.1601
67.255489 85.727 5.9703
67.742850 85.721 5.7524
68.233743 85.715 5.5013
68.728193 85.705 5.2245
69.226226 85.692 4.9376
69.727867 85.676 4.6556
70.233144 85.658 4.3859
70.742083 85.641 4.1287
71.254709 85.625 3.8799
71.771050 85.610 3.6353
72.291132 85.597 3.3915
72.814984 85.584 3.1481
73.342631 85.570 2.9072
73.874102 85.557 2.6734
74.409424 85.542 2.4508
74.948626 85.528 2.2408
75.491734 85.514 2.0418
76.038779 85.501 1.8504
76.589787 85.488 1.6637
77.144788 85.475 1.4796
77.703811 85.461 1.2968
78.266885 85.447 1.1147
78.834039 85.433 0.9332
79.405303 85.418 0.7523
79.980706 85.402 0.5721
80.560280 85.385 0.3927
81.144053 85.368 0.2139
81.732056 85.351 0.0359
82.324320 85.332 -0.1403
82.920876 85.314 -0.3145
83.521755 85.296 -0.4877
84.126988 85.278 -0.6630
84.736607 85.261 -0.8444
85.350643 85.244 -1.0333
85.969129 85.225 -1.2282
86.592097 85.205 -1.4242
87.219579 85.184 -1.6162
87.851608 85.162 -1.8007
88.488217 85.139 -1.9772
89.129439 85.117 -2.1464
89.775308 85.095 -2.3093
90.425856 85.072 -2.4651
91.081119 85.050 -2.6124
91.741131 85.029 -2.7509
92.405925 85.008 -2.8826
93.075536 84.989 -3.0117
93.750000 84.970 -3.1418
94.429351 84.951 -3.2744
95.113625 84.931 -3.4088
95.802858 84.910 -3.5435
96.497085 84.888 -3.6766
97.196342 84.865 -3.8068
97.900667 84.841 -3.9341
98.610096 84.816 -4.0600
99.324665 84.791 -4.1873
100.044413 84.766 -4.3187
