* Measurement data measured by REW V5.31.3
* Source: Headset (CX31993 HIFI AUDIO), MICROPHONE (Master Volume), R, volume: 0.400
* Format: 256k Log Swept Sine, 1 sweep at -11.9 dBFS with no timing reference
* Dated: 04 29, 25 11:12:59 AM
* REW Settings:
*  C-weighting compensation: Off
*  Target level: 75.0 dB
* Note: ; 
* Measurement: Tanchjim Zero Ultima R
* Smoothing: 1/12 octave
* Frequency Step: 96 ppo
* Start Frequency: 0.36621094 Hz
*
* Freq(Hz) SPL(dB) Phase(degrees)
0.366211 47.211 -13.7137
0.368865 47.203 -13.7004
0.371538 47.192 -13.6807
0.374230 47.178 -13.6565
0.376942 47.162 -13.6293
0.379673 47.145 -13.6004
0.382424 47.127 -13.5703
0.385196 47.109 -13.5396
0.387987 47.091 -13.5086
0.390798 47.072 -13.4774
0.393630 47.053 -13.4461
0.396483 47.034 -13.4146
0.399356 47.014 -13.3830
0.402250 46.995 -13.3513
0.405165 46.975 -13.3194
0.408101 46.956 -13.2873
0.411058 46.936 -13.2550
0.414037 46.916 -13.2225
0.417037 46.896 -13.1897
0.420059 46.875 -13.1565
0.423103 46.855 -13.1230
0.426169 46.834 -13.0892
0.429257 46.814 -13.0549
0.432368 46.793 -13.0201
0.435501 46.772 -12.9848
0.438656 46.750 -12.9490
0.441835 46.729 -12.9126
0.445037 46.707 -12.8755
0.448262 46.686 -12.8377
0.451510 46.664 -12.7992
0.454782 46.642 -12.7599
0.458077 46.620 -12.7197
0.461397 46.598 -12.6786
0.464740 46.575 -12.6365
0.468108 46.552 -12.5933
0.471500 46.530 -12.5491
0.474917 46.507 -12.5036
0.478358 46.484 -12.4569
0.481825 46.460 -12.4088
0.485316 46.437 -12.3593
0.488833 46.413 -12.3084
0.492375 46.389 -12.2558
0.495943 46.365 -12.2015
0.499537 46.341 -12.1455
0.503157 46.317 -12.0876
0.506803 46.292 -12.0278
0.510475 46.268 -11.9659
0.514175 46.243 -11.9018
0.517900 46.218 -11.8353
0.521653 46.193 -11.7665
0.525434 46.167 -11.6952
0.529241 46.142 -11.6212
0.533076 46.116 -11.5443
0.536939 46.090 -11.4646
0.540830 46.064 -11.3818
0.544749 46.037 -11.2957
0.548696 46.011 -11.2063
0.552673 45.984 -11.1134
0.556677 45.957 -11.0168
0.560711 45.930 -10.9163
0.564774 45.903 -10.8118
0.568867 45.875 -10.7031
0.572989 45.848 -10.5900
0.577141 45.820 -10.4723
0.581324 45.792 -10.3499
0.585536 45.763 -10.2224
0.589779 45.735 -10.0898
0.594053 45.706 -9.9518
0.598358 45.677 -9.8082
0.602694 45.648 -9.6588
0.607061 45.619 -9.5033
0.611460 45.589 -9.3416
0.615891 45.559 -9.1733
0.620354 45.529 -8.9983
0.624849 45.499 -8.8163
0.629377 45.469 -8.6271
0.633938 45.438 -8.4303
0.638532 45.407 -8.2259
0.643159 45.376 -8.0135
0.647819 45.345 -7.7928
0.652514 45.313 -7.5637
0.657242 45.282 -7.3259
0.662005 45.250 -7.0791
0.666802 45.217 -6.8232
0.671634 45.185 -6.5578
0.676501 45.152 -6.2827
0.681403 45.119 -5.9978
0.686341 45.086 -5.7029
0.691314 45.053 -5.3976
0.696324 45.020 -5.0820
0.701370 44.987 -4.7556
0.706452 44.954 -4.4185
0.711571 44.922 -4.0704
0.716728 44.893 -3.7110
0.721921 44.866 -3.3402
0.727153 44.844 -2.9577
0.732422 44.828 -2.5630
0.737729 44.819 -2.1557
0.743075 44.817 -1.7353
0.748460 44.821 -1.3016
0.753883 44.830 -0.8542
0.759346 44.842 -0.3931
0.764849 44.857 0.0817
0.770391 44.875 0.5701
0.775974 44.895 1.0720
0.781597 44.917 1.5872
0.787261 44.941 2.1153
0.792966 44.968 2.6561
0.798712 44.996 3.2092
0.804500 45.026 3.7741
0.810329 45.059 4.3505
0.816201 45.093 4.9378
0.822116 45.129 5.5354
0.828073 45.167 6.1428
0.834074 45.208 6.7592
0.840118 45.250 7.3840
0.846206 45.294 8.0165
0.852338 45.340 8.6557
0.858514 45.388 9.3008
0.864735 45.439 9.9510
0.871001 45.491 10.6052
0.877313 45.545 11.2625
0.883670 45.601 11.9218
0.890074 45.659 12.5821
0.896524 45.719 13.2422
0.903020 45.781 13.9010
0.909564 45.844 14.5574
0.916155 45.910 15.2101
0.922794 45.977 15.8579
0.929481 46.047 16.4997
0.936216 46.118 17.1342
0.943000 46.191 17.7602
0.949834 46.266 18.3765
0.956717 46.342 18.9819
0.963649 46.420 19.5751
0.970632 46.500 20.1551
0.977666 46.582 20.7207
0.984750 46.665 21.2706
0.991886 46.750 21.8040
0.999074 46.836 22.3197
1.006314 46.923 22.8167
1.013606 47.013 23.2940
1.020951 47.103 23.7508
1.028349 47.195 24.1861
1.035801 47.288 24.5992
1.043307 47.383 24.9894
1.050867 47.478 25.3561
1.058482 47.575 25.6990
1.066152 47.673 26.0178
1.073878 47.772 26.3127
1.081660 47.873 26.5847
1.089498 47.975 26.8351
1.097393 48.080 27.0661
1.105345 48.187 27.2803
1.113355 48.296 27.4806
1.121423 48.409 27.6691
1.129549 48.526 27.8474
1.137734 48.646 28.0161
1.145979 48.769 28.1757
1.154283 48.897 28.3260
1.162647 49.027 28.4669
1.171072 49.162 28.5981
1.179558 49.299 28.7191
1.188106 49.440 28.8296
1.196715 49.585 28.9292
1.205387 49.732 29.0176
1.214122 49.882 29.0945
1.222920 50.035 29.1596
1.231782 50.190 29.2125
1.240708 50.348 29.2531
1.249699 50.508 29.2811
1.258754 50.671 29.2962
1.267876 50.835 29.2983
1.277063 51.001 29.2871
1.286318 51.169 29.2624
1.295639 51.338 29.2240
1.305027 51.508 29.1718
1.314484 51.679 29.1054
1.324009 51.851 29.0249
1.333604 52.023 28.9298
1.343268 52.195 28.8200
1.353002 52.367 28.6954
1.362806 52.539 28.5556
1.372681 52.710 28.4005
1.382628 52.880 28.2299
1.392647 53.049 28.0434
1.402739 53.217 27.8410
1.412904 53.382 27.6224
1.423142 53.546 27.3876
1.433455 53.707 27.1366
1.443843 53.866 26.8698
1.454305 54.023 26.5877
1.464844 54.178 26.2915
1.475459 54.331 25.9822
1.486150 54.482 25.6614
1.496920 54.633 25.3303
1.507767 54.782 24.9898
1.518693 54.931 24.6408
1.529698 55.078 24.2838
1.540783 55.225 23.9192
1.551948 55.372 23.5473
1.563194 55.518 23.1684
1.574521 55.663 22.7826
1.585931 55.807 22.3902
1.597423 55.951 21.9912
1.608999 56.095 21.5857
1.620658 56.237 21.1737
1.632402 56.379 20.7554
1.644232 56.521 20.3305
1.656146 56.662 19.8992
1.668147 56.802 19.4614
1.680235 56.942 19.0169
1.692411 57.081 18.5656
1.704675 57.219 18.1073
1.717028 57.358 17.6420
1.729470 57.495 17.1693
1.742003 57.632 16.6890
1.754626 57.769 16.2007
1.767341 57.905 15.7042
1.780147 58.040 15.1991
1.793047 58.175 14.6848
1.806040 58.309 14.1608
1.819128 58.443 13.6267
1.832310 58.576 13.0818
1.845587 58.708 12.5259
1.858961 58.839 11.9590
1.872432 58.969 11.3811
1.886001 59.098 10.7930
1.899667 59.225 10.1953
1.913433 59.352 9.5890
1.927299 59.477 8.9749
1.941265 59.601 8.3540
1.955332 59.724 7.7272
1.969501 59.846 7.0954
1.983773 59.967 6.4593
1.998148 60.087 5.8197
2.012627 60.205 5.1773
2.027212 60.323 4.5327
2.041902 60.440 3.8864
2.056698 60.556 3.2391
2.071602 60.671 2.5910
2.086614 60.785 1.9426
2.101734 60.899 1.2940
2.116964 61.012 0.6453
2.132304 61.124 -0.0035
2.147756 61.235 -0.6529
2.163320 61.346 -1.3035
2.178996 61.456 -1.9563
2.194786 61.565 -2.6130
2.210690 61.673 -3.2750
2.226710 61.780 -3.9439
2.242845 61.886 -4.6205
2.259098 61.991 -5.3052
2.275468 62.094 -5.9977
2.291957 62.196 -6.6970
2.308566 62.296 -7.4023
2.325295 62.395 -8.1124
2.342145 62.493 -8.8260
2.359117 62.590 -9.5419
2.376212 62.685 -10.2588
2.393431 62.779 -10.9754
2.410775 62.873 -11.6906
2.428244 62.965 -12.4032
2.445840 63.056 -13.1122
2.463564 63.146 -13.8167
2.481416 63.235 -14.5160
2.499397 63.324 -15.2096
2.517509 63.411 -15.8975
2.535752 63.498 -16.5805
2.554127 63.583 -17.2597
2.572635 63.667 -17.9370
2.591277 63.750 -18.6146
2.610055 63.832 -19.2941
2.628968 63.912 -19.9765
2.648019 63.991 -20.6620
2.667208 64.068 -21.3501
2.686535 64.144 -22.0401
2.706003 64.219 -22.7307
2.725612 64.292 -23.4206
2.745363 64.364 -24.1083
2.765257 64.435 -24.7921
2.785295 64.505 -25.4706
2.805478 64.574 -26.1421
2.825808 64.642 -26.8051
2.846285 64.709 -27.4582
2.866910 64.776 -28.1005
2.887685 64.842 -28.7314
2.908611 64.908 -29.3510
2.929688 64.972 -29.9600
2.950917 65.036 -30.5598
2.972301 65.098 -31.1521
2.993839 65.159 -31.7381
3.015534 65.219 -32.3185
3.037386 65.278 -32.8937
3.059396 65.336 -33.4633
3.081565 65.392 -34.0268
3.103896 65.448 -34.5835
3.126388 65.504 -35.1324
3.149043 65.559 -35.6724
3.171862 65.614 -36.2022
3.194847 65.670 -36.7207
3.217998 65.725 -37.2268
3.241317 65.781 -37.7192
3.264805 65.837 -38.1973
3.288463 65.893 -38.6605
3.312293 65.950 -39.1088
3.336295 66.007 -39.5425
3.360471 66.064 -39.9622
3.384822 66.121 -40.3689
3.409350 66.178 -40.7633
3.434056 66.235 -41.1461
3.458940 66.292 -41.5183
3.484005 66.351 -41.8804
3.509252 66.410 -42.2330
3.534681 66.471 -42.5766
3.560295 66.533 -42.9115
3.586094 66.596 -43.2376
3.612081 66.662 -43.5548
3.638255 66.730 -43.8623
3.664620 66.800 -44.1594
3.691175 66.872 -44.4452
3.717923 66.946 -44.7192
3.744864 67.022 -44.9818
3.772001 67.100 -45.2341
3.799335 67.180 -45.4779
3.826866 67.262 -45.7153
3.854597 67.346 -45.9489
3.882529 67.432 -46.1810
3.910664 67.520 -46.4139
3.939002 67.610 -46.6495
3.967546 67.703 -46.8892
3.996296 67.798 -47.1335
4.025255 67.896 -47.3822
4.054423 67.997 -47.6343
4.083804 68.100 -47.8887
4.113396 68.206 -48.1453
4.143204 68.315 -48.4045
4.173227 68.425 -48.6677
4.203468 68.538 -48.9368
4.233928 68.653 -49.2141
4.264609 68.769 -49.5019
4.295512 68.887 -49.8022
4.326639 69.006 -50.1169
4.357992 69.126 -50.4470
4.389572 69.247 -50.7927
4.421380 69.369 -51.1536
4.453419 69.492 -51.5287
4.485691 69.616 -51.9171
4.518196 69.741 -52.3182
4.550936 69.868 -52.7318
4.583914 69.994 -53.1581
4.617131 70.121 -53.5974
4.650589 70.247 -54.0505
4.684289 70.373 -54.5179
4.718233 70.498 -55.0003
4.752424 70.622 -55.4981
4.786862 70.746 -56.0115
4.821549 70.868 -56.5400
4.856488 70.990 -57.0828
4.891680 71.110 -57.6385
4.927127 71.230 -58.2058
4.962831 71.348 -58.7831
4.998794 71.465 -59.3692
5.035017 71.580 -59.9630
5.071503 71.693 -60.5641
5.108253 71.804 -61.1726
5.145270 71.914 -61.7887
5.182555 72.021 -62.4127
5.220110 72.126 -63.0443
5.257937 72.229 -63.6825
5.296038 72.330 -64.3257
5.334415 72.429 -64.9717
5.373071 72.525 -65.6185
5.412006 72.620 -66.2645
5.451224 72.713 -66.9085
5.490725 72.803 -67.5501
5.530514 72.892 -68.1897
5.570590 72.978 -68.8274
5.610957 73.062 -69.4631
5.651616 73.144 -70.0961
5.692570 73.224 -70.7248
5.733821 73.302 -71.3478
5.775370 73.379 -71.9633
5.817221 73.454 -72.5702
5.859375 73.528 -73.1679
5.901834 73.601 -73.7563
5.944602 73.672 -74.3357
5.987679 73.741 -74.9064
6.031068 73.810 -75.4683
6.074771 73.877 -76.0212
6.118792 73.944 -76.5645
6.163131 74.011 -77.0978
6.207792 74.077 -77.6207
6.252776 74.143 -78.1330
6.298086 74.208 -78.6350
6.343725 74.273 -79.1272
6.389694 74.338 -79.6102
6.435996 74.403 -80.0849
6.482634 74.469 -80.5519
6.529610 74.534 -81.0120
6.576926 74.600 -81.4654
6.624585 74.666 -81.9125
6.672590 74.733 -82.3537
6.720942 74.800 -82.7894
6.769645 74.867 -83.2204
6.818700 74.934 -83.6476
6.868111 75.002 -84.0720
6.917881 75.070 -84.4943
6.968010 75.138 -84.9150
7.018504 75.207 -85.3345
7.069362 75.275 -85.7530
7.120590 75.344 -86.1704
7.172189 75.412 -86.5869
7.224161 75.480 -87.0026
7.276511 75.548 -87.4178
7.329239 75.615 -87.8325
7.382350 75.682 -88.2467
7.435845 75.749 -88.6601
7.489729 75.814 -89.0724
7.544002 75.879 -89.4827
7.598669 75.944 -89.8906
7.653732 76.007 -90.2953
7.709194 76.070 -90.6965
7.765058 76.132 -91.0938
7.821327 76.193 -91.4869
7.878004 76.254 -91.8754
7.935091 76.314 -92.2585
7.992592 76.374 -92.6358
8.050510 76.433 -93.0068
8.108847 76.492 -93.3713
8.167607 76.551 -93.7293
8.226793 76.610 -94.0812
8.286408 76.669 -94.4272
8.346454 76.728 -94.7679
8.406936 76.787 -95.1036
8.467856 76.847 -95.4347
8.529218 76.908 -95.7619
8.591024 76.969 -96.0861
8.653278 77.030 -96.4087
8.715983 77.092 -96.7309
8.779143 77.155 -97.0539
8.842760 77.218 -97.3785
8.906839 77.282 -97.7057
8.971381 77.346 -98.0364
9.036392 77.411 -98.3715
9.101873 77.475 -98.7119
9.167829 77.539 -99.0584
9.234263 77.603 -99.4113
9.301178 77.666 -99.7706
9.368578 77.729 -100.1359
9.436467 77.790 -100.5068
9.504847 77.850 -100.8827
9.573723 77.909 -101.2630
9.643099 77.966 -101.6467
9.712976 78.021 -102.0324
9.783361 78.074 -102.4183
9.854255 78.126 -102.8029
9.925663 78.176 -103.1845
9.997588 78.224 -103.5618
10.070035 78.270 -103.9335
10.143007 78.315 -104.2980
10.216507 78.358 -104.6539
10.290540 78.401 -105.0003
10.365109 78.443 -105.3367
10.440219 78.485 -105.6631
10.515873 78.526 -105.9800
10.592076 78.568 -106.2880
10.668830 78.611 -106.5883
10.746141 78.655 -106.8824
10.824012 78.700 -107.1725
10.902447 78.747 -107.4613
10.981451 78.795 -107.7517
11.061027 78.844 -108.0462
11.141180 78.895 -108.3477
11.221913 78.946 -108.6588
11.303232 78.999 -108.9823
11.385140 79.052 -109.3205
11.467641 79.104 -109.6747
11.550741 79.157 -110.0457
11.634442 79.207 -110.4336
11.718750 79.256 -110.8380
11.803669 79.302 -111.2577
11.889203 79.346 -111.6903
11.975357 79.385 -112.1326
12.062136 79.421 -112.5809
12.149543 79.453 -113.0309
12.237583 79.480 -113.4783
12.326262 79.503 -113.9178
12.415583 79.522 -114.3442
12.505552 79.537 -114.7526
12.596172 79.549 -115.1386
12.687449 79.558 -115.4985
12.779387 79.566 -115.8292
12.871992 79.574 -116.1287
12.965268 79.582 -116.3967
13.059220 79.592 -116.6344
13.153852 79.605 -116.8446
13.249170 79.622 -117.0315
13.345179 79.644 -117.2007
13.441884 79.671 -117.3594
13.539289 79.704 -117.5158
13.637401 79.742 -117.6784
13.736223 79.786 -117.8553
13.835761 79.835 -118.0547
13.936021 79.888 -118.2840
14.037007 79.944 -118.5486
14.138725 80.002 -118.8523
14.241180 80.060 -119.1969
14.344377 80.116 -119.5826
14.448323 80.170 -120.0070
14.553021 80.220 -120.4658
14.658478 80.265 -120.9530
14.764700 80.303 -121.4613
14.871691 80.335 -121.9822
14.979457 80.361 -122.5063
15.088005 80.379 -123.0242
15.197339 80.391 -123.5266
15.307465 80.397 -124.0051
15.418389 80.399 -124.4519
15.530117 80.397 -124.8611
15.642655 80.394 -125.2288
15.756008 80.390 -125.5532
15.870182 80.388 -125.8347
15.985184 80.388 -126.0764
16.101019 80.393 -126.2835
16.217694 80.402 -126.4632
16.335214 80.418 -126.6240
16.453586 80.441 -126.7756
16.572815 80.469 -126.9276
16.692909 80.504 -127.0890
16.813872 80.544 -127.2679
16.935713 80.587 -127.4707
17.058436 80.634 -127.7018
17.182048 80.683 -127.9634
17.306556 80.732 -128.2560
17.431967 80.780 -128.5780
17.558286 80.826 -128.9261
17.685521 80.870 -129.2960
17.813677 80.911 -129.6828
17.942762 80.949 -130.0811
18.072783 80.983 -130.4855
18.203746 81.014 -130.8912
18.335658 81.042 -131.2942
18.468526 81.068 -131.6911
18.602356 81.091 -132.0797
18.737156 81.113 -132.4587
18.872934 81.134 -132.8276
19.009695 81.153 -133.1868
19.147447 81.173 -133.5370
19.286197 81.192 -133.8794
19.425953 81.210 -134.2154
19.566721 81.228 -134.5461
19.708510 81.246 -134.8723
19.851326 81.264 -135.1947
19.995177 81.280 -135.5132
20.140070 81.296 -135.8277
20.286013 81.312 -136.1373
20.433014 81.326 -136.4411
20.581080 81.340 -136.7381
20.730219 81.353 -137.0270
20.880439 81.365 -137.3069
21.031747 81.378 -137.5774
21.184152 81.390 -137.8383
21.337661 81.404 -138.0901
21.492282 81.418 -138.3341
21.648024 81.433 -138.5722
21.804895 81.449 -138.8067
21.962902 81.467 -139.0405
22.122054 81.487 -139.2764
22.282360 81.507 -139.5171
22.443827 81.529 -139.7648
22.606464 81.551 -140.0210
22.770280 81.573 -140.2859
22.935283 81.595 -140.5592
23.101481 81.616 -140.8392
23.268884 81.636 -141.1238
23.437500 81.655 -141.4106
23.607338 81.674 -141.6971
23.778406 81.692 -141.9820
23.950714 81.710 -142.2647
24.124271 81.729 -142.5460
24.299086 81.748 -142.8277
24.475167 81.768 -143.1125
24.652524 81.789 -143.4031
24.831166 81.810 -143.7017
25.011103 81.830 -144.0090
25.192344 81.849 -144.3239
25.374898 81.867 -144.6430
25.558775 81.882 -144.9612
25.743984 81.896 -145.2723
25.930536 81.908 -145.5706
26.118439 81.919 -145.8517
26.307704 81.931 -146.1143
26.498341 81.945 -146.3609
26.690359 81.963 -146.5978
26.883768 81.984 -146.8346
27.078579 82.008 -147.0819
27.274801 82.036 -147.3497
27.472446 82.063 -147.6443
27.671522 82.090 -147.9667
27.872042 82.112 -148.3115
28.074014 82.129 -148.6678
28.277450 82.140 -149.0204
28.482360 82.145 -149.3530
28.688755 82.145 -149.6518
28.896645 82.145 -149.9087
29.106042 82.145 -150.1234
29.316957 82.149 -150.3045
29.529400 82.158 -150.4673
29.743382 82.174 -150.6307
29.958915 82.194 -150.8122
30.176009 82.215 -151.0233
30.394677 82.236 -151.2666
30.614929 82.253 -151.5348
30.836778 82.263 -151.8127
31.060234 82.268 -152.0815
31.285309 82.268 -152.3236
31.512015 82.266 -152.5280
31.740364 82.265 -152.6937
31.970368 82.269 -152.8303
32.202039 82.278 -152.9557
32.435388 82.294 -153.0917
32.670428 82.315 -153.2569
32.907171 82.337 -153.4623
33.145630 82.358 -153.7082
33.385817 82.374 -153.9849
33.627745 82.384 -154.2755
33.871425 82.389 -154.5619
34.116871 82.390 -154.8294
34.364096 82.389 -155.0714
34.613113 82.390 -155.2901
34.863934 82.394 -155.4956
35.116572 82.401 -155.7015
35.371041 82.411 -155.9201
35.627354 82.421 -156.1577
35.885525 82.430 -156.4121
36.145566 82.435 -156.6737
36.407492 82.437 -156.9281
36.671316 82.436 -157.1609
36.937051 82.434 -157.3622
37.204712 82.434 -157.5301
37.474313 82.439 -157.6714
37.745867 82.449 -157.8003
38.019389 82.465 -157.9344
38.294893 82.486 -158.0901
38.572394 82.509 -158.2776
38.851905 82.531 -158.4991
39.133442 82.551 -158.7482
39.417019 82.566 -159.0125
39.702651 82.576 -159.2771
39.990353 82.582 -159.5293
40.280140 82.585 -159.7614
40.572026 82.587 -159.9727
40.866028 82.590 -160.1685
41.162160 82.594 -160.3569
41.460438 82.599 -160.5460
41.760877 82.604 -160.7403
42.063494 82.609 -160.9408
42.368303 82.613 -161.1456
42.675322 82.617 -161.3539
42.984565 82.622 -161.5685
43.296048 82.627 -161.7958
43.609789 82.633 -162.0438
43.925804 82.638 -162.3168
44.244108 82.639 -162.6108
44.564719 82.635 -162.9115
44.887654 82.626 -163.1977
45.212928 82.613 -163.4484
45.540560 82.602 -163.6523
45.870565 82.597 -163.8134
46.202962 82.600 -163.9520
46.537768 82.614 -164.0975
46.875000 82.635 -164.2778
47.214676 82.661 -164.5100
47.556813 82.687 -164.7951
47.901429 82.709 -165.1194
48.248542 82.724 -165.4597
48.598171 82.732 -165.7886
48.950334 82.734 -166.0801
49.305048 82.734 -166.3157
49.662333 82.735 -166.4906
50.022206 82.742 -166.6187
50.384688 82.758 -166.7322
50.749796 82.782 -166.8724
51.117550 82.808 -167.0719
51.487969 82.830 -167.3386
51.861072 82.839 -167.6485
52.236879 82.834 -167.9543
52.615409 82.815 -168.2057
52.996681 82.790 -168.3716
53.380717 82.766 -168.4531
53.767536 82.749 -168.4808
54.157158 82.741 -168.4981
54.549603 82.741 -168.5416
54.944892 82.743 -168.6291
55.343045 82.745 -168.7600
55.744084 82.745 -168.9233
56.148028 82.743 -169.1071
56.554900 82.739 -169.3040
56.964720 82.733 -169.5110
57.377510 82.726 -169.7267
57.793291 82.718 -169.9480
58.212085 82.708 -170.1686
58.633914 82.699 -170.3821
59.058799 82.690 -170.5853
59.486764 82.683 -170.7815
59.917829 82.678 -170.9781
60.352019 82.675 -171.1814
60.789354 82.672 -171.3913
61.229859 82.669 -171.6009
61.673556 82.664 -171.8019
62.120468 82.659 -171.9896
62.570618 82.656 -172.1650
63.024031 82.653 -172.3316
63.480729 82.651 -172.4919
63.940736 82.651 -172.6475
64.404077 82.651 -172.8012
64.870776 82.654 -172.9585
65.340856 82.657 -173.1256
65.814343 82.660 -173.3059
66.291261 82.661 -173.4992
66.771635 82.661 -173.7019
67.255489 82.659 -173.9096
67.742850 82.654 -174.1175
68.233743 82.648 -174.3212
68.728193 82.640 -174.5170
69.226226 82.632 -174.7040
69.727867 82.624 -174.8846
70.233144 82.617 -175.0634
70.742083 82.610 -175.2445
71.254709 82.604 -175.4290
71.771050 82.598 -175.6155
72.291132 82.592 -175.8015
72.814984 82.587 -175.9858
73.342631 82.582 -176.1692
73.874102 82.578 -176.3532
74.409424 82.575 -176.5385
74.948626 82.572 -176.7241
75.491734 82.569 -176.9074
76.038779 82.565 -177.0857
76.589787 82.561 -177.2567
77.144788 82.557 -177.4198
77.703811 82.553 -177.5762
78.266885 82.548 -177.7286
78.834039 82.543 -177.8796
79.405303 82.537 -178.0309
79.980706 82.529 -178.1832
80.560280 82.521 -178.3366
81.144053 82.511 -178.4921
81.732056 82.501 -178.6507
82.324320 82.490 -178.8129
82.920876 82.479 -178.9784
83.521755 82.467 -179.1463
84.126988 82.457 -179.3156
84.736607 82.447 -179.4855
85.350643 82.438 -179.6564
85.969129 82.431 -179.8288
86.592097 82.425 179.9976
87.219579 82.419 179.8254
87.851608 82.413 179.6569
88.488217 82.407 179.4926
89.129439 82.400 179.3310
89.775308 82.394 179.1704
90.425856 82.386 179.0107
91.081119 82.377 178.8530
