* Measurement data measured by REW V5.31.3
* Source: Headset (2- CX31993 HIFI AUDIO), MICROPHONE (Master Volume), R, volume: 0.250
* Format: 256k Log Swept Sine, 1 sweep at -12.0 dBFS with no timing reference
* Dated: 10 28, 24 11:21:14 AM
* REW Settings:
*  C-weighting compensation: Off
*  Target level: 75.0 dB
* Note: ; 
* Measurement: Tanchjim Origin L
* Smoothing: 1/12 octave
* Frequency Step: 96 ppo
* Start Frequency: 0.36621094 Hz
*
* Freq(Hz) SPL(dB) Phase(degrees)
0.366211 37.951 8.7708
0.368865 37.972 8.8276
0.371538 38.004 8.9120
0.374230 38.044 9.0166
0.376942 38.088 9.1353
0.379673 38.136 9.2635
0.382424 38.185 9.3982
0.385196 38.236 9.5377
0.387987 38.288 9.6807
0.390798 38.340 9.8269
0.393630 38.393 9.9757
0.396483 38.446 10.1272
0.399356 38.500 10.2811
0.402250 38.554 10.4374
0.405165 38.608 10.5962
0.408101 38.663 10.7573
0.411058 38.718 10.9208
0.414037 38.774 11.0867
0.417037 38.830 11.2548
0.420059 38.886 11.4253
0.423103 38.943 11.5981
0.426169 39.001 11.7732
0.429257 39.058 11.9505
0.432368 39.116 12.1300
0.435501 39.175 12.3118
0.438656 39.234 12.4956
0.441835 39.293 12.6816
0.445037 39.353 12.8697
0.448262 39.413 13.0598
0.451510 39.474 13.2520
0.454782 39.535 13.4461
0.458077 39.597 13.6420
0.461397 39.659 13.8399
0.464740 39.721 14.0395
0.468108 39.784 14.2409
0.471500 39.848 14.4439
0.474917 39.912 14.6485
0.478358 39.976 14.8547
0.481825 40.041 15.0624
0.485316 40.106 15.2714
0.488833 40.172 15.4817
0.492375 40.238 15.6933
0.495943 40.304 15.9060
0.499537 40.372 16.1197
0.503157 40.439 16.3344
0.506803 40.507 16.5499
0.510475 40.576 16.7663
0.514175 40.645 16.9832
0.517900 40.715 17.2007
0.521653 40.785 17.4186
0.525434 40.856 17.6369
0.529241 40.927 17.8554
0.533076 40.998 18.0739
0.536939 41.071 18.2924
0.540830 41.143 18.5108
0.544749 41.217 18.7288
0.548696 41.290 18.9465
0.552673 41.365 19.1635
0.556677 41.440 19.3799
0.560711 41.515 19.5955
0.564774 41.591 19.8101
0.568867 41.667 20.0236
0.572989 41.744 20.2359
0.577141 41.822 20.4467
0.581324 41.900 20.6561
0.585536 41.979 20.8637
0.589779 42.058 21.0696
0.594053 42.138 21.2734
0.598358 42.219 21.4751
0.602694 42.300 21.6746
0.607061 42.381 21.8717
0.611460 42.463 22.0662
0.615891 42.546 22.2580
0.620354 42.630 22.4470
0.624849 42.714 22.6329
0.629377 42.798 22.8158
0.633938 42.884 22.9954
0.638532 42.970 23.1716
0.643159 43.056 23.3443
0.647819 43.143 23.5132
0.652514 43.231 23.6784
0.657242 43.319 23.8397
0.662005 43.408 23.9970
0.666802 43.498 24.1501
0.671634 43.588 24.2989
0.676501 43.679 24.4433
0.681403 43.771 24.5832
0.686341 43.863 24.7186
0.691314 43.956 24.8493
0.696324 44.050 24.9754
0.701370 44.145 25.0966
0.706452 44.240 25.2132
0.711571 44.336 25.3252
0.716728 44.434 25.4329
0.721921 44.533 25.5367
0.727153 44.633 25.6373
0.732422 44.736 25.7357
0.737729 44.841 25.8331
0.743075 44.948 25.9304
0.748460 45.057 26.0284
0.753883 45.169 26.1276
0.759346 45.282 26.2281
0.764849 45.396 26.3300
0.770391 45.512 26.4331
0.775974 45.630 26.5371
0.781597 45.749 26.6418
0.787261 45.870 26.7468
0.792966 45.992 26.8517
0.798712 46.116 26.9564
0.804500 46.241 27.0604
0.810329 46.368 27.1635
0.816201 46.496 27.2653
0.822116 46.625 27.3654
0.828073 46.756 27.4637
0.834074 46.888 27.5599
0.840118 47.022 27.6535
0.846206 47.156 27.7444
0.852338 47.293 27.8322
0.858514 47.430 27.9168
0.864735 47.569 27.9978
0.871001 47.708 28.0749
0.877313 47.850 28.1480
0.883670 47.992 28.2168
0.890074 48.135 28.2810
0.896524 48.280 28.3404
0.903020 48.425 28.3948
0.909564 48.572 28.4440
0.916155 48.719 28.4878
0.922794 48.868 28.5260
0.929481 49.017 28.5583
0.936216 49.167 28.5845
0.943000 49.318 28.6046
0.949834 49.470 28.6183
0.956717 49.622 28.6254
0.963649 49.775 28.6258
0.970632 49.929 28.6193
0.977666 50.083 28.6058
0.984750 50.238 28.5851
0.991886 50.393 28.5570
0.999074 50.548 28.5215
1.006314 50.704 28.4784
1.013606 50.859 28.4276
1.020951 51.015 28.3690
1.028349 51.171 28.3024
1.035801 51.327 28.2278
1.043307 51.483 28.1451
1.050867 51.638 28.0544
1.058482 51.793 27.9556
1.066152 51.948 27.8489
1.073878 52.102 27.7346
1.081660 52.256 27.6133
1.089498 52.410 27.4859
1.097393 52.563 27.3535
1.105345 52.716 27.2176
1.113355 52.869 27.0796
1.121423 53.022 26.9406
1.129549 53.175 26.8014
1.137734 53.328 26.6623
1.145979 53.482 26.5236
1.154283 53.635 26.3850
1.162647 53.789 26.2465
1.171072 53.943 26.1077
1.179558 54.097 25.9685
1.188106 54.251 25.8286
1.196715 54.405 25.6876
1.205387 54.560 25.5454
1.214122 54.714 25.4015
1.222920 54.869 25.2558
1.231782 55.024 25.1080
1.240708 55.179 24.9578
1.249699 55.334 24.8050
1.258754 55.490 24.6492
1.267876 55.645 24.4903
1.277063 55.801 24.3280
1.286318 55.957 24.1620
1.295639 56.113 23.9922
1.305027 56.269 23.8182
1.314484 56.425 23.6400
1.324009 56.581 23.4571
1.333604 56.738 23.2695
1.343268 56.894 23.0769
1.353002 57.051 22.8790
1.362806 57.207 22.6758
1.372681 57.364 22.4669
1.382628 57.521 22.2521
1.392647 57.678 22.0314
1.402739 57.835 21.8046
1.412904 57.992 21.5716
1.423142 58.149 21.3325
1.433455 58.307 21.0873
1.443843 58.464 20.8365
1.454305 58.621 20.5808
1.464844 58.778 20.3211
1.475459 58.935 20.0586
1.486150 59.092 19.7943
1.496920 59.248 19.5292
1.507767 59.404 19.2636
1.518693 59.560 18.9979
1.529698 59.715 18.7320
1.540783 59.870 18.4658
1.551948 60.025 18.1991
1.563194 60.179 17.9315
1.574521 60.333 17.6627
1.585931 60.486 17.3925
1.597423 60.640 17.1205
1.608999 60.793 16.8463
1.620658 60.945 16.5697
1.632402 61.098 16.2903
1.644232 61.250 16.0078
1.656146 61.402 15.7218
1.668147 61.554 15.4321
1.680235 61.705 15.1384
1.692411 61.856 14.8402
1.704675 62.008 14.5374
1.717028 62.159 14.2296
1.729470 62.310 13.9165
1.742003 62.461 13.5978
1.754626 62.612 13.2734
1.767341 62.762 12.9429
1.780147 62.913 12.6063
1.793047 63.064 12.2635
1.806040 63.215 11.9146
1.819128 63.365 11.5601
1.832310 63.516 11.2004
1.845587 63.666 10.8363
1.858961 63.815 10.4686
1.872432 63.965 10.0979
1.886001 64.113 9.7248
1.899667 64.262 9.3495
1.913433 64.409 8.9723
1.927299 64.556 8.5931
1.941265 64.703 8.2122
1.955332 64.848 7.8294
1.969501 64.994 7.4447
1.983773 65.139 7.0581
1.998148 65.283 6.6695
2.012627 65.427 6.2787
2.027212 65.571 5.8857
2.041902 65.714 5.4903
2.056698 65.857 5.0924
2.071602 65.999 4.6919
2.086614 66.142 4.2884
2.101734 66.284 3.8820
2.116964 66.426 3.4723
2.132304 66.567 3.0593
2.147756 66.708 2.6428
2.163320 66.850 2.2226
2.178996 66.991 1.7988
2.194786 67.131 1.3713
2.210690 67.271 0.9404
2.226710 67.411 0.5063
2.242845 67.550 0.0692
2.259098 67.688 -0.3706
2.275468 67.826 -0.8128
2.291957 67.963 -1.2572
2.308566 68.099 -1.7037
2.325295 68.235 -2.1522
2.342145 68.370 -2.6024
2.359117 68.505 -3.0542
2.376212 68.638 -3.5078
2.393431 68.772 -3.9628
2.410775 68.905 -4.4195
2.428244 69.037 -4.8776
2.445840 69.169 -5.3374
2.463564 69.301 -5.7988
2.481416 69.432 -6.2618
2.499397 69.563 -6.7267
2.517509 69.693 -7.1935
2.535752 69.823 -7.6625
2.554127 69.953 -8.1337
2.572635 70.082 -8.6075
2.591277 70.211 -9.0838
2.610055 70.339 -9.5629
2.628968 70.466 -10.0445
2.648019 70.593 -10.5285
2.667208 70.718 -11.0148
2.686535 70.843 -11.5030
2.706003 70.968 -11.9929
2.725612 71.091 -12.4844
2.745363 71.214 -12.9771
2.765257 71.337 -13.4708
2.785295 71.459 -13.9655
2.805478 71.580 -14.4608
2.825808 71.701 -14.9569
2.846285 71.821 -15.4535
2.866910 71.941 -15.9507
2.887685 72.061 -16.4487
2.908611 72.180 -16.9476
2.929688 72.298 -17.4478
2.950917 72.416 -17.9496
2.972301 72.534 -18.4531
2.993839 72.650 -18.9587
3.015534 72.766 -19.4662
3.037386 72.881 -19.9755
3.059396 72.995 -20.4863
3.081565 73.109 -20.9984
3.103896 73.222 -21.5114
3.126388 73.334 -22.0251
3.149043 73.446 -22.5392
3.171862 73.557 -23.0534
3.194847 73.667 -23.5676
3.217998 73.777 -24.0817
3.241317 73.887 -24.5956
3.264805 73.996 -25.1094
3.288463 74.104 -25.6235
3.312293 74.212 -26.1381
3.336295 74.320 -26.6537
3.360471 74.426 -27.1705
3.384822 74.532 -27.6886
3.409350 74.637 -28.2077
3.434056 74.742 -28.7278
3.458940 74.845 -29.2486
3.484005 74.948 -29.7698
3.509252 75.051 -30.2910
3.534681 75.152 -30.8120
3.560295 75.254 -31.3325
3.586094 75.354 -31.8524
3.612081 75.455 -32.3716
3.638255 75.554 -32.8904
3.664620 75.654 -33.4090
3.691175 75.752 -33.9277
3.717923 75.850 -34.4468
3.744864 75.947 -34.9666
3.772001 76.044 -35.4869
3.799335 76.139 -36.0077
3.826866 76.234 -36.5287
3.854597 76.329 -37.0496
3.882529 76.423 -37.5700
3.910664 76.516 -38.0897
3.939002 76.609 -38.6085
3.967546 76.701 -39.1261
3.996296 76.793 -39.6428
4.025255 76.884 -40.1586
4.054423 76.974 -40.6739
4.083804 77.064 -41.1889
4.113396 77.153 -41.7039
4.143204 77.242 -42.2188
4.173227 77.330 -42.7335
4.203468 77.417 -43.2477
4.233928 77.504 -43.7612
4.264609 77.590 -44.2737
4.295512 77.675 -44.7848
4.326639 77.760 -45.2945
4.357992 77.845 -45.8026
4.389572 77.929 -46.3094
4.421380 78.012 -46.8149
4.453419 78.095 -47.3195
4.485691 78.177 -47.8233
4.518196 78.259 -48.3264
4.550936 78.340 -48.8286
4.583914 78.420 -49.3296
4.617131 78.500 -49.8292
4.650589 78.579 -50.3271
4.684289 78.658 -50.8231
4.718233 78.737 -51.3171
4.752424 78.815 -51.8091
4.786862 78.892 -52.2993
4.821549 78.970 -52.7878
4.856488 79.046 -53.2748
4.891680 79.122 -53.7603
4.927127 79.198 -54.2443
4.962831 79.273 -54.7266
4.998794 79.348 -55.2071
5.035017 79.422 -55.6856
5.071503 79.496 -56.1620
5.108253 79.570 -56.6362
5.145270 79.644 -57.1083
5.182555 79.717 -57.5784
5.220110 79.790 -58.0467
5.257937 79.863 -58.5133
5.296038 79.935 -58.9781
5.334415 80.007 -59.4414
5.373071 80.079 -59.9030
5.412006 80.150 -60.3630
5.451224 80.222 -60.8213
5.490725 80.293 -61.2781
5.530514 80.364 -61.7333
5.570590 80.435 -62.1871
5.610957 80.506 -62.6395
5.651616 80.577 -63.0909
5.692570 80.648 -63.5412
5.733821 80.718 -63.9908
5.775370 80.789 -64.4398
5.817221 80.859 -64.8882
5.859375 80.929 -65.3363
5.901834 81.000 -65.7840
5.944602 81.070 -66.2315
5.987679 81.140 -66.6788
6.031068 81.210 -67.1263
6.074771 81.280 -67.5739
6.118792 81.350 -68.0220
6.163131 81.419 -68.4706
6.207792 81.489 -68.9201
6.252776 81.559 -69.3704
6.298086 81.628 -69.8216
6.343725 81.697 -70.2739
6.389694 81.766 -70.7271
6.435996 81.835 -71.1814
6.482634 81.903 -71.6368
6.529610 81.971 -72.0934
6.576926 82.039 -72.5511
6.624585 82.107 -73.0102
6.672590 82.174 -73.4705
6.720942 82.241 -73.9321
6.769645 82.307 -74.3948
6.818700 82.373 -74.8585
6.868111 82.439 -75.3228
6.917881 82.504 -75.7878
6.968010 82.568 -76.2534
7.018504 82.633 -76.7195
7.069362 82.696 -77.1861
7.120590 82.759 -77.6529
7.172189 82.822 -78.1197
7.224161 82.884 -78.5862
7.276511 82.945 -79.0521
7.329239 83.006 -79.5172
7.382350 83.067 -79.9815
7.435845 83.127 -80.4449
7.489729 83.186 -80.9072
7.544002 83.245 -81.3682
7.598669 83.304 -81.8278
7.653732 83.362 -82.2856
7.709194 83.420 -82.7417
7.765058 83.477 -83.1960
7.821327 83.534 -83.6484
7.878004 83.591 -84.0991
7.935091 83.648 -84.5480
7.992592 83.704 -84.9951
8.050510 83.761 -85.4406
8.108847 83.817 -85.8843
8.167607 83.873 -86.3266
8.226793 83.929 -86.7674
8.286408 83.984 -87.2072
8.346454 84.040 -87.6461
8.406936 84.096 -88.0843
8.467856 84.151 -88.5219
8.529218 84.207 -88.9593
8.591024 84.262 -89.3965
8.653278 84.317 -89.8338
8.715983 84.373 -90.2714
8.779143 84.428 -90.7095
8.842760 84.482 -91.1483
8.906839 84.537 -91.5879
8.971381 84.591 -92.0282
9.036392 84.646 -92.4694
9.101873 84.699 -92.9113
9.167829 84.753 -93.3540
9.234263 84.806 -93.7973
9.301178 84.858 -94.2413
9.368578 84.910 -94.6855
9.436467 84.961 -95.1297
9.504847 85.012 -95.5737
9.573723 85.062 -96.0171
9.643099 85.112 -96.4597
9.712976 85.160 -96.9012
9.783361 85.209 -97.3411
9.854255 85.256 -97.7791
9.925663 85.304 -98.2149
9.997588 85.350 -98.6481
10.070035 85.396 -99.0785
10.143007 85.442 -99.5060
10.216507 85.487 -99.9302
10.290540 85.532 -100.3510
10.365109 85.576 -100.7684
10.440219 85.620 -101.1824
10.515873 85.665 -101.5932
10.592076 85.709 -102.0008
10.668830 85.752 -102.4054
10.746141 85.796 -102.8073
10.824012 85.840 -103.2068
10.902447 85.884 -103.6043
10.981451 85.928 -104.0002
11.061027 85.972 -104.3949
11.141180 86.016 -104.7888
11.221913 86.061 -105.1822
11.303232 86.105 -105.5756
11.385140 86.149 -105.9694
11.467641 86.193 -106.3637
11.550741 86.237 -106.7588
11.634442 86.280 -107.1548
11.718750 86.323 -107.5518
11.803669 86.366 -107.9498
11.889203 86.409 -108.3487
11.975357 86.451 -108.7482
12.062136 86.492 -109.1481
12.149543 86.533 -109.5482
12.237583 86.573 -109.9480
12.326262 86.613 -110.3471
12.415583 86.651 -110.7450
12.505552 86.689 -111.1414
12.596172 86.727 -111.5359
12.687449 86.764 -111.9279
12.779387 86.800 -112.3172
12.871992 86.835 -112.7034
12.965268 86.871 -113.0864
13.059220 86.906 -113.4660
13.153852 86.940 -113.8421
13.249170 86.974 -114.2148
13.345179 87.008 -114.5842
13.441884 87.042 -114.9506
13.539289 87.076 -115.3142
13.637401 87.110 -115.6753
13.736223 87.144 -116.0345
13.835761 87.178 -116.3921
13.936021 87.212 -116.7486
14.037007 87.246 -117.1044
14.138725 87.280 -117.4600
14.241180 87.314 -117.8156
14.344377 87.348 -118.1717
14.448323 87.381 -118.5285
14.553021 87.415 -118.8860
14.658478 87.448 -119.2443
14.764700 87.481 -119.6034
14.871691 87.514 -119.9631
14.979457 87.546 -120.3231
15.088005 87.578 -120.6833
15.197339 87.609 -121.0434
15.307465 87.640 -121.4029
15.418389 87.670 -121.7616
15.530117 87.700 -122.1191
15.642655 87.730 -122.4754
15.756008 87.759 -122.8301
15.870182 87.788 -123.1833
15.985184 87.817 -123.5350
16.101019 87.845 -123.8855
16.217694 87.874 -124.2348
16.335214 87.902 -124.5834
16.453586 87.931 -124.9316
16.572815 87.959 -125.2798
16.692909 87.987 -125.6282
16.813872 88.015 -125.9773
16.935713 88.043 -126.3271
17.058436 88.070 -126.6777
17.182048 88.097 -127.0291
17.306556 88.124 -127.3810
17.431967 88.150 -127.7331
17.558286 88.176 -128.0849
17.685521 88.202 -128.4359
17.813677 88.226 -128.7857
17.942762 88.251 -129.1338
18.072783 88.275 -129.4798
18.203746 88.298 -129.8236
18.335658 88.322 -130.1650
18.468526 88.345 -130.5042
18.602356 88.368 -130.8414
18.737156 88.392 -131.1771
18.872934 88.415 -131.5117
19.009695 88.438 -131.8455
19.147447 88.461 -132.1790
19.286197 88.484 -132.5124
19.425953 88.507 -132.8457
19.566721 88.529 -133.1786
19.708510 88.552 -133.5110
19.851326 88.573 -133.8423
19.995177 88.595 -134.1720
20.140070 88.616 -134.4998
20.286013 88.637 -134.8253
20.433014 88.658 -135.1487
20.581080 88.679 -135.4702
20.730219 88.701 -135.7906
20.880439 88.722 -136.1108
21.031747 88.744 -136.4319
21.184152 88.765 -136.7550
21.337661 88.787 -137.0809
21.492282 88.808 -137.4101
21.648024 88.828 -137.7424
21.804895 88.848 -138.0771
21.962902 88.866 -138.4125
22.122054 88.883 -138.7465
22.282360 88.898 -139.0766
22.443827 88.912 -139.4001
22.606464 88.925 -139.7147
22.770280 88.937 -140.0185
22.935283 88.949 -140.3106
23.101481 88.962 -140.5913
23.268884 88.975 -140.8618
23.437500 88.989 -141.1245
23.607338 89.005 -141.3826
23.778406 89.022 -141.6396
23.950714 89.041 -141.8987
24.124271 89.061 -142.1628
24.299086 89.082 -142.4338
24.475167 89.102 -142.7125
24.652524 89.122 -142.9985
24.831166 89.142 -143.2907
25.011103 89.160 -143.5872
25.192344 89.178 -143.8860
25.374898 89.194 -144.1850
25.558775 89.210 -144.4828
25.743984 89.224 -144.7785
25.930536 89.238 -145.0717
26.118439 89.252 -145.3626
26.307704 89.265 -145.6515
26.498341 89.278 -145.9384
26.690359 89.290 -146.2234
26.883768 89.302 -146.5060
27.078579 89.314 -146.7856
27.274801 89.325 -147.0614
27.472446 89.336 -147.3332
27.671522 89.347 -147.6010
27.872042 89.358 -147.8656
28.074014 89.369 -148.1284
28.277450 89.382 -148.3911
28.482360 89.394 -148.6558
28.688755 89.407 -148.9237
28.896645 89.420 -149.1955
29.106042 89.432 -149.4707
29.316957 89.443 -149.7480
29.529400 89.454 -150.0252
29.743382 89.463 -150.2999
29.958915 89.472 -150.5703
30.176009 89.481 -150.8353
30.394677 89.490 -151.0950
30.614929 89.500 -151.3508
30.836778 89.510 -151.6048
31.060234 89.521 -151.8598
31.285309 89.533 -152.1178
31.512015 89.545 -152.3803
31.740364 89.556 -152.6473
31.970368 89.567 -152.9179
32.202039 89.577 -153.1897
32.435388 89.585 -153.4603
32.670428 89.593 -153.7270
32.907171 89.601 -153.9882
33.145630 89.608 -154.2430
33.385817 89.615 -154.4916
33.627745 89.622 -154.7353
33.871425 89.630 -154.9758
34.116871 89.638 -155.2149
34.364096 89.647 -155.4539
34.613113 89.656 -155.6937
34.863934 89.665 -155.9344
35.116572 89.673 -156.1755
35.371041 89.682 -156.4163
35.627354 89.690 -156.6561
35.885525 89.697 -156.8944
36.145566 89.705 -157.1311
36.407492 89.713 -157.3667
36.671316 89.721 -157.6015
36.937051 89.729 -157.8364
37.204712 89.736 -158.0719
37.474313 89.744 -158.3086
37.745867 89.752 -158.5465
38.019389 89.759 -158.7856
38.294893 89.766 -159.0256
38.572394 89.773 -159.2658
38.851905 89.779 -159.5058
39.133442 89.785 -159.7449
39.417019 89.790 -159.9828
39.702651 89.795 -160.2193
39.990353 89.801 -160.4543
40.280140 89.806 -160.6881
40.572026 89.811 -160.9209
40.866028 89.815 -161.1526
41.162160 89.820 -161.3832
41.460438 89.824 -161.6124
41.760877 89.829 -161.8402
42.063494 89.833 -162.0669
42.368303 89.838 -162.2934
42.675322 89.842 -162.5203
42.984565 89.846 -162.7481
43.296048 89.850 -162.9764
43.609789 89.854 -163.2038
43.925804 89.856 -163.4284
44.244108 89.859 -163.6485
44.564719 89.862 -163.8639
44.887654 89.865 -164.0765
45.212928 89.869 -164.2896
45.540560 89.874 -164.5068
45.870565 89.879 -164.7307
46.202962 89.884 -164.9616
46.537768 89.887 -165.1971
46.875000 89.889 -165.4331
47.214676 89.890 -165.6653
47.556813 89.890 -165.8906
47.901429 89.889 -166.1078
48.248542 89.889 -166.3178
48.598171 89.888 -166.5221
48.950334 89.889 -166.7225
49.305048 89.889 -166.9203
49.662333 89.890 -167.1166
50.022206 89.891 -167.3126
50.384688 89.893 -167.5098
50.749796 89.894 -167.7094
51.117550 89.895 -167.9121
51.487969 89.895 -168.1172
51.861072 89.895 -168.3235
52.236879 89.893 -168.5299
52.615409 89.891 -168.7358
52.996681 89.889 -168.9413
53.380717 89.885 -169.1457
53.767536 89.881 -169.3471
54.157158 89.877 -169.5423
54.549603 89.872 -169.7293
54.944892 89.869 -169.9090
55.343045 89.868 -170.0866
55.744084 89.868 -170.2698
56.148028 89.871 -170.4651
56.554900 89.874 -170.6744
56.964720 89.876 -170.8947
57.377510 89.876 -171.1198
57.793291 89.876 -171.3443
58.212085 89.876 -171.5653
58.633914 89.875 -171.7829
59.058799 89.875 -171.9991
59.486764 89.875 -172.2159
59.917829 89.874 -172.4344
60.352019 89.873 -172.6544
60.789354 89.871 -172.8737
61.229859 89.868 -173.0892
61.673556 89.864 -173.2989
62.120468 89.860 -173.5024
62.570618 89.856 -173.7014
63.024031 89.852 -173.8979
63.480729 89.849 -174.0930
63.940736 89.846 -174.2872
64.404077 89.843 -174.4816
64.870776 89.842 -174.6778
65.340856 89.840 -174.8767
65.814343 89.839 -175.0774
66.291261 89.839 -175.2788
66.771635 89.838 -175.4815
67.255489 89.838 -175.6883
67.742850 89.838 -175.9017
68.233743 89.837 -176.1204
68.728193 89.833 -176.3394
69.226226 89.828 -176.5526
69.727867 89.820 -176.7552
70.233144 89.812 -176.9447
70.742083 89.802 -177.1204
71.254709 89.793 -177.2843
71.771050 89.784 -177.4411
72.291132 89.776 -177.5951
72.814984 89.768 -177.7480
73.342631 89.760 -177.9003
73.874102 89.752 -178.0553
74.409424 89.745 -178.2175
74.948626 89.738 -178.3881
75.491734 89.730 -178.5629
76.038779 89.722 -178.7390
76.589787 89.714 -178.9198
77.144788 89.706 -179.1094
77.703811 89.697 -179.3041
78.266885 89.688 -179.4956
78.834039 89.678 -179.6821
79.405303 89.670 -179.8694
79.980706 89.661 179.9401
80.560280 89.651 179.7525
81.144053 89.641 179.5732
81.732056 89.632 179.3981
82.324320 89.623 179.2215
82.920876 89.613 179.0439
83.521755 89.602 178.8690
84.126988 89.592 178.6961
84.736607 89.581 178.5218
85.350643 89.569 178.3455
85.969129 89.557 178.1687
86.592097 89.545 177.9911
87.219579 89.533 177.8116
87.851608 89.520 177.6313
88.488217 89.508 177.4521
89.129439 89.495 177.2758
89.775308 89.483 177.1042
90.425856 89.470 176.9393
91.081119 89.457 176.7811
91.741131 89.445 176.6263
92.405925 89.433 176.4696
93.075536 89.420 176.3069
93.750000 89.406 176.1372
