* Measurement data measured by REW V5.30.4
* Source: Headset (2- CX31993 HIFI AUDIO), MICROPHONE (Master Volume), L, volume: 0.500
* Format: 256k Log Swept Sine, 1 sweep at -12.0 dBFS with no timing reference
* Dated: 07 13, 24 5:47:59 PM
* REW Settings:
*  C-weighting compensation: Off
*  Target level: 75.0 dB
* Note: ; 
* Measurement: Tangzu Wan'er SE L
* Smoothing: 1/12 octave
* Frequency Step: 96 ppo
* Start Frequency: 20.141602 Hz
*
* Freq(Hz) SPL(dB) Phase(degrees)
20.141602 95.710 25.0824
20.287556 95.716 25.0457
20.434568 95.724 24.9412
20.582645 95.734 24.7882
20.731796 95.745 24.6029
20.882027 95.757 24.3974
21.033346 95.769 24.1775
21.185762 95.781 23.9428
21.339283 95.793 23.7040
21.493916 95.806 23.4635
21.649670 95.818 23.2231
21.806553 95.830 22.9843
21.964573 95.843 22.7484
22.123737 95.855 22.5098
22.284056 95.868 22.2739
22.445536 95.881 22.0432
22.608185 95.894 21.8174
22.772013 95.907 21.5963
22.937029 95.921 21.3791
23.103241 95.934 21.1601
23.270657 95.947 20.9405
23.439285 95.959 20.7224
23.609137 95.970 20.5054
23.780218 95.981 20.2895
23.952539 95.991 20.0748
24.126110 95.999 19.8561
24.300938 96.007 19.6374
24.477032 96.014 19.4212
24.654402 96.020 19.2078
24.833057 96.026 18.9971
25.013008 96.032 18.7879
25.194263 96.039 18.5734
25.376831 96.046 18.3589
25.560722 96.053 18.1433
25.745945 96.062 17.9257
25.932510 96.070 17.7054
26.120428 96.079 17.4776
26.309708 96.088 17.2453
26.500359 96.097 17.0121
26.692390 96.105 16.7800
26.885815 96.112 16.5505
27.080641 96.119 16.3227
27.276878 96.125 16.0967
27.474539 96.131 15.8767
27.673630 96.137 15.6624
27.874165 96.143 15.4530
28.076153 96.149 15.2449
28.279604 96.155 15.0349
28.484529 96.161 14.8248
28.690941 96.167 14.6133
28.898848 96.173 14.3997
29.108261 96.179 14.1816
29.319191 96.184 13.9599
29.531651 96.189 13.7382
29.745649 96.193 13.5184
29.961199 96.196 13.3020
30.178310 96.199 13.0862
30.396996 96.202 12.8749
30.617264 96.204 12.6688
30.839128 96.207 12.4672
31.062601 96.209 12.2675
31.287693 96.212 12.0663
31.514416 96.215 11.8653
31.742783 96.217 11.6637
31.972803 96.220 11.4613
32.204491 96.222 11.2553
32.437859 96.225 11.0497
32.672916 96.227 10.8461
32.909679 96.230 10.6457
33.148155 96.233 10.4461
33.388359 96.236 10.2484
33.630306 96.239 10.0539
33.874004 96.242 9.8618
34.119469 96.245 9.6697
34.366711 96.246 9.4774
34.615746 96.245 9.2870
34.866585 96.243 9.0987
35.119244 96.239 8.9098
35.373734 96.236 8.7174
35.630066 96.233 8.5186
35.888256 96.231 8.3070
36.148315 96.232 8.0737
36.410259 96.234 7.8152
36.674103 96.237 7.5336
36.939857 96.241 7.2350
37.207539 96.243 6.9293
37.477161 96.242 6.6336
37.748737 96.240 6.3646
38.022282 96.236 6.1352
38.297806 96.232 5.9484
38.575329 96.228 5.8055
38.854862 96.226 5.6966
39.136421 96.226 5.6054
39.420021 96.226 5.5156
39.705673 96.226 5.4147
39.993397 96.224 5.2947
40.283207 96.221 5.1509
40.575115 96.215 4.9887
40.869141 96.208 4.8135
41.165295 96.200 4.6288
41.463596 96.193 4.4394
41.764057 96.187 4.2498
42.066696 96.182 4.0610
42.371529 96.179 3.8729
42.678570 96.176 3.6873
42.987835 96.174 3.5051
43.299343 96.170 3.3247
43.613110 96.166 3.1493
43.929150 96.161 2.9793
44.247478 96.155 2.8116
44.568115 96.149 2.6469
44.891075 96.143 2.4845
45.216373 96.138 2.3220
45.544029 96.134 2.1588
45.874062 96.129 1.9951
46.206486 96.125 1.8298
46.541317 96.121 1.6636
46.878574 96.117 1.4973
47.218277 96.113 1.3284
47.560440 96.109 1.1560
47.905083 96.104 0.9794
48.252224 96.099 0.7968
48.601879 96.093 0.6097
48.954067 96.087 0.4211
49.308807 96.079 0.2332
49.666119 96.072 0.0494
50.026020 96.064 -0.1290
50.388531 96.056 -0.3039
50.753666 96.048 -0.4739
51.121449 96.040 -0.6408
51.491894 96.032 -0.8065
51.865025 96.024 -0.9702
52.240860 96.016 -1.1334
52.619419 96.007 -1.2961
53.000721 95.998 -1.4579
53.384785 95.989 -1.6203
53.771633 95.979 -1.7812
54.161285 95.969 -1.9406
54.553761 95.959 -2.0990
54.949081 95.949 -2.2565
55.347263 95.940 -2.4153
55.748333 95.930 -2.5751
56.152309 95.920 -2.7360
56.559212 95.910 -2.8980
56.969063 95.900 -3.0597
57.381886 95.890 -3.2232
57.797699 95.880 -3.3853
58.216526 95.870 -3.5446
58.638386 95.859 -3.7000
59.063305 95.849 -3.8514
59.491302 95.838 -4.0005
59.922401 95.826 -4.1474
60.356625 95.814 -4.2952
60.793995 95.802 -4.4440
61.234531 95.789 -4.5943
61.678261 95.776 -4.7457
62.125206 95.764 -4.8969
62.575390 95.752 -5.0475
63.028835 95.741 -5.1972
63.485569 95.729 -5.3471
63.945610 95.717 -5.4946
64.408989 95.704 -5.6404
64.875725 95.692 -5.7832
65.345840 95.678 -5.9231
65.819366 95.665 -6.0604
66.296318 95.651 -6.1974
66.776726 95.637 -6.3346
67.260620 95.624 -6.4720
67.748016 95.610 -6.6104
68.238945 95.596 -6.7513
68.733429 95.582 -6.8938
69.231499 95.568 -7.0353
69.733177 95.554 -7.1748
70.238495 95.539 -7.3121
70.747475 95.525 -7.4473
71.260139 95.510 -7.5815
71.776520 95.495 -7.7148
72.296638 95.480 -7.8465
72.820526 95.466 -7.9767
73.348213 95.451 -8.1060
73.879723 95.437 -8.2345
74.415085 95.422 -8.3639
74.954330 95.407 -8.4929
75.497482 95.392 -8.6204
76.044571 95.377 -8.7453
76.595619 95.362 -8.8667
77.150665 95.346 -8.9837
77.709732 95.330 -9.0969
78.272850 95.314 -9.2072
78.840050 95.297 -9.3167
79.411354 95.279 -9.4264
79.986801 95.259 -9.5392
80.566422 95.240 -9.6575
81.150238 95.220 -9.7811
81.738289 95.201 -9.9078
82.330597 95.182 -10.0356
82.927200 95.164 -10.1603
83.528122 95.145 -10.2781
84.133400 95.127 -10.3916
84.743065 95.109 -10.5048
85.357147 95.091 -10.6183
85.975677 95.072 -10.7310
86.598694 95.054 -10.8387
87.226227 95.036 -10.9434
87.858307 95.017 -11.0464
88.494965 94.999 -11.1466
89.136238 94.980 -11.2457
89.782158 94.961 -11.3451
90.432755 94.941 -11.4470
91.088066 94.922 -11.5507
91.748131 94.902 -11.6537
92.412979 94.882 -11.7553
93.082642 94.861 -11.8539
93.757156 94.841 -11.9503
94.436562 94.821 -12.0444
95.120888 94.801 -12.1382
95.810173 94.781 -12.2327
96.504456 94.761 -12.3259
97.203766 94.740 -12.4189
97.908142 94.719 -12.5135
98.617622 94.698 -12.6051
99.332245 94.677 -12.6946
100.052048 94.657 -12.7818
100.777069 94.636 -12.8682
101.507339 94.615 -12.9513
102.242905 94.594 -13.0314
102.983795 94.573 -13.1086
103.730057 94.552 -13.1866
104.481728 94.531 -13.2625
105.238846 94.510 -13.3379
106.001450 94.488 -13.4135
106.769577 94.467 -13.4911
107.543274 94.444 -13.5660
108.322578 94.422 -13.6358
109.107529 94.399 -13.7009
109.898170 94.377 -13.7670
110.694534 94.354 -13.8367
111.496674 94.332 -13.9102
112.304626 94.310 -13.9873
113.118431 94.287 -14.0649
113.938133 94.263 -14.1369
114.763779 94.240 -14.1990
115.595406 94.216 -14.2474
116.433060 94.193 -14.2858
117.276779 94.171 -14.3152
118.126617 94.150 -14.3364
118.982613 94.131 -14.3651
119.844810 94.111 -14.4092
120.713257 94.090 -14.4722
121.587997 94.068 -14.5495
122.469070 94.045 -14.6321
123.356529 94.022 -14.7100
124.250420 93.998 -14.7767
125.150787 93.973 -14.8326
126.057678 93.946 -14.8794
126.971146 93.920 -14.9232
127.891228 93.894 -14.9720
128.817978 93.869 -15.0206
129.751450 93.846 -15.0655
130.691681 93.824 -15.1059
131.638733 93.801 -15.1429
132.592636 93.777 -15.1788
133.553452 93.751 -15.2157
134.521240 93.724 -15.2514
135.496033 93.697 -15.2815
136.477890 93.670 -15.3048
137.466858 93.645 -15.3201
138.462997 93.620 -15.3295
139.466354 93.596 -15.3379
140.476990 93.571 -15.3488
141.494949 93.545 -15.3674
142.520279 93.518 -15.3918
143.553040 93.490 -15.4159
144.593277 93.462 -15.4378
145.641052 93.435 -15.4576
146.696426 93.408 -15.4768
147.759445 93.382 -15.4946
148.830170 93.356 -15.5130
149.908661 93.332 -15.5297
150.994965 93.307 -15.5421
152.089142 93.282 -15.5551
153.191238 93.257 -15.5667
154.301331 93.232 -15.5781
155.419464 93.206 -15.5907
156.545700 93.180 -15.5996
157.680099 93.154 -15.6037
158.822708 93.129 -15.6057
159.973602 93.103 -15.6031
161.132843 93.077 -15.5998
162.300476 93.050 -15.5943
163.476578 93.024 -15.5858
164.661194 92.998 -15.5753
165.854401 92.972 -15.5632
167.056244 92.946 -15.5479
168.266800 92.920 -15.5326
169.486130 92.894 -15.5160
170.714294 92.868 -15.4976
171.951355 92.841 -15.4787
173.197388 92.814 -15.4597
174.452454 92.787 -15.4422
175.716614 92.759 -15.4260
176.989929 92.730 -15.4070
178.272476 92.702 -15.3889
179.564316 92.674 -15.3681
180.865509 92.646 -15.3425
182.176132 92.619 -15.3207
183.496262 92.592 -15.2937
184.825958 92.563 -15.2636
186.165283 92.534 -15.2294
187.514313 92.504 -15.1906
188.873123 92.474 -15.1523
190.241776 92.443 -15.1067
191.620346 92.412 -15.0670
193.008911 92.381 -15.0226
194.407532 92.350 -14.9840
195.816284 92.319 -14.9340
197.235245 92.287 -14.8773
198.664490 92.255 -14.8102
200.104095 92.222 -14.7301
201.554138 92.188 -14.6356
203.014679 92.155 -14.5266
204.485809 92.120 -14.4056
205.967590 92.086 -14.2732
207.460114 92.051 -14.1303
208.963455 92.017 -13.9697
210.477692 91.983 -13.7923
212.002899 91.951 -13.5956
213.539154 91.922 -13.3770
215.086548 91.898 -13.1363
216.645157 91.878 -12.8722
218.215057 91.863 -12.6009
219.796341 91.854 -12.3323
221.389069 91.852 -12.0760
222.993347 91.855 -11.8461
224.609253 91.863 -11.6506
226.236862 91.873 -11.4953
227.876266 91.885 -11.3804
229.527557 91.896 -11.3024
231.190811 91.904 -11.2596
232.866119 91.910 -11.2469
234.553558 91.911 -11.2627
236.253235 91.909 -11.2897
237.965225 91.902 -11.3197
239.689621 91.891 -11.3524
241.426514 91.877 -11.3801
243.175995 91.861 -11.4011
244.938141 91.842 -11.4144
246.713058 91.822 -11.4206
248.500839 91.801 -11.4154
250.301575 91.779 -11.4057
252.115356 91.757 -11.3868
253.942291 91.734 -11.3561
255.782455 91.712 -11.3176
257.635956 91.690 -11.2681
259.502899 91.667 -11.2159
261.383362 91.645 -11.1599
263.277466 91.622 -11.0919
265.185272 91.599 -11.0204
267.106903 91.576 -10.9436
269.042480 91.553 -10.8651
270.992065 91.529 -10.7792
272.955780 91.505 -10.6889
274.933716 91.481 -10.5921
276.925995 91.456 -10.4853
278.932709 91.432 -10.3784
280.953979 91.407 -10.2655
282.989899 91.382 -10.1445
285.040558 91.358 -10.0250
287.106079 91.335 -9.9013
289.186554 91.314 -9.7727
291.282104 91.293 -9.6380
293.392853 91.273 -9.4988
295.518890 91.255 -9.3547
297.660339 91.238 -9.2103
299.817322 91.222 -9.0657
301.989929 91.207 -8.9170
304.178284 91.193 -8.7701
306.382477 91.180 -8.6247
308.602661 91.169 -8.4798
310.838928 91.159 -8.3404
313.091400 91.149 -8.2108
315.360199 91.140 -8.0907
317.645416 91.131 -7.9842
319.947205 91.121 -7.8865
322.265686 91.110 -7.8001
324.600952 91.098 -7.7211
326.953156 91.084 -7.6432
329.322388 91.068 -7.5656
331.708801 91.052 -7.4854
334.112488 91.034 -7.4007
336.533600 91.016 -7.3101
338.972260 90.998 -7.2145
341.428589 90.979 -7.1104
343.902710 90.961 -6.9973
346.394775 90.942 -6.8726
348.904907 90.924 -6.7401
351.433228 90.905 -6.5998
353.979858 90.887 -6.4615
356.544952 90.870 -6.3264
359.128632 90.852 -6.1962
361.731018 90.834 -6.0708
364.352264 90.816 -5.9446
366.992523 90.799 -5.8167
369.651917 90.781 -5.6782
372.330566 90.764 -5.5392
375.028625 90.746 -5.3852
377.746246 90.729 -5.2291
380.483551 90.712 -5.0668
383.240692 90.695 -4.9048
386.017822 90.677 -4.7414
388.815063 90.659 -4.5753
391.632568 90.640 -4.4150
394.470490 90.622 -4.2513
397.328979 90.604 -4.0835
400.208191 90.586 -3.9130
403.108276 90.569 -3.7316
406.029358 90.551 -3.5474
408.971619 90.534 -3.3583
411.935181 90.516 -3.1612
414.920227 90.500 -2.9511
417.926910 90.484 -2.7370
420.955383 90.469 -2.5117
424.005798 90.455 -2.2842
427.078308 90.443 -2.0492
430.173096 90.433 -1.8094
433.290314 90.425 -1.5681
436.430115 90.420 -1.3242
439.592682 90.417 -1.0888
442.778137 90.416 -0.8658
445.986694 90.417 -0.6588
449.218506 90.419 -0.4660
452.473724 90.420 -0.2936
455.752533 90.421 -0.1387
459.055115 90.420 0.0026
462.381622 90.418 0.1443
465.732239 90.413 0.2812
469.107117 90.407 0.4191
472.506470 90.400 0.5662
475.930450 90.391 0.7136
479.379242 90.382 0.8677
482.853027 90.372 1.0282
486.351990 90.361 1.1921
489.876282 90.351 1.3670
493.426117 90.340 1.5473
497.001678 90.330 1.7246
500.603149 90.320 1.9118
504.230713 90.310 2.1005
507.884583 90.300 2.2940
511.564911 90.291 2.4888
515.271912 90.282 2.6889
519.005798 90.272 2.8939
522.766724 90.263 3.0960
526.554932 90.254 3.3072
530.370544 90.246 3.5139
534.213806 90.237 3.7304
538.084961 90.229 3.9434
541.984131 90.222 4.1568
545.911560 90.214 4.3775
549.867432 90.207 4.5959
553.851990 90.200 4.8149
557.865417 90.194 5.0367
561.907959 90.188 5.2638
565.979797 90.183 5.4910
570.081116 90.177 5.7212
574.212158 90.172 5.9546
578.373108 90.166 6.1909
582.564209 90.161 6.4305
586.785706 90.156 6.6741
591.037781 90.152 6.9165
595.320679 90.147 7.1608
599.634644 90.143 7.4088
603.979858 90.140 7.6572
608.356567 90.136 7.9084
612.764954 90.133 8.1636
617.205322 90.130 8.4171
621.677856 90.128 8.6762
626.182800 90.126 8.9371
630.720398 90.124 9.2029
635.290833 90.123 9.4698
639.894409 90.122 9.7388
644.531372 90.122 10.0114
649.201904 90.122 10.2860
653.906311 90.122 10.5612
658.644775 90.123 10.8421
663.417603 90.124 11.1235
668.224976 90.126 11.4084
673.067200 90.128 11.6959
677.944519 90.130 11.9858
682.857178 90.133 12.2770
687.805420 90.137 12.5700
692.789551 90.141 12.8706
697.809814 90.146 13.1681
702.866455 90.151 13.4720
707.959717 90.156 13.7789
713.089905 90.162 14.0862
718.257263 90.169 14.3930
723.462036 90.176 14.7097
728.704529 90.184 15.0230
733.985046 90.193 15.3364
739.303833 90.203 15.6569
744.661133 90.213 15.9789
750.057251 90.223 16.3011
755.492493 90.234 16.6274
760.967102 90.246 16.9538
766.481384 90.258 17.2833
772.035645 90.271 17.6140
777.630127 90.284 17.9505
783.265137 90.297 18.2869
788.940979 90.310 18.6342
794.657959 90.324 18.9835
800.416382 90.338 19.3418
806.216553 90.353 19.7168
812.058716 90.370 20.1026
817.943237 90.389 20.5051
823.870361 90.411 20.9164
829.840454 90.436 21.3277
835.853821 90.465 21.7404
841.910767 90.496 22.1472
848.011597 90.530 22.5503
854.156616 90.567 22.9373
860.346191 90.606 23.3122
866.580627 90.645 23.6734
872.860229 90.686 24.0231
879.185364 90.726 24.3594
885.556274 90.767 24.6946
891.973389 90.808 25.0214
898.437012 90.849 25.3545
904.947449 90.891 25.6850
911.505066 90.933 26.0097
918.110229 90.977 26.3395
924.763245 91.022 26.6645
931.464478 91.068 26.9947
938.214233 91.116 27.3176
945.012939 91.165 27.6360
951.860901 91.215 27.9456
958.758484 91.266 28.2558
965.706055 91.319 28.5550
972.703979 91.373 28.8523
979.752563 91.428 29.1444
986.852234 91.484 29.4228
994.003357 91.542 29.6972
1001.206299 91.601 29.9630
1008.461426 91.660 30.2225
1015.769165 91.721 30.4654
1023.129822 91.783 30.7046
1030.543823 91.845 30.9355
1038.011597 91.909 31.1545
1045.533447 91.973 31.3645
1053.109863 92.037 31.5681
1060.741089 92.102 31.7547
1068.427612 92.168 31.9326
1076.169922 92.233 32.1055
1083.968262 92.299 32.2641
1091.823120 92.365 32.4113
1099.734863 92.431 32.5515
1107.703979 92.498 32.6823
1115.730835 92.564 32.7996
1123.815918 92.630 32.9109
1131.959595 92.696 33.0141
1140.162231 92.762 33.1001
1148.424316 92.827 33.1893
1156.746216 92.892 33.2646
1165.128418 92.957 33.3344
1173.571411 93.021 33.3956
1182.075562 93.085 33.4467
1190.641357 93.148 33.4970
1199.269287 93.211 33.5335
1207.959717 93.273 33.5649
1216.713135 93.335 33.5939
1225.529907 93.396 33.6130
1234.410645 93.456 33.6315
1243.355713 93.516 33.6413
1252.365601 93.576 33.6502
1261.440796 93.634 33.6499
1270.581665 93.692 33.6557
1279.788818 93.750 33.6542
1289.062744 93.807 33.6478
1298.403809 93.863 33.6419
1307.812622 93.919 33.6355
1317.289551 93.974 33.6207
1326.835205 94.029 33.6129
1336.449951 94.084 33.6011
1346.134399 94.138 33.5885
1355.889038 94.191 33.5701
1365.714355 94.244 33.5550
1375.610840 94.298 33.5410
1385.579102 94.350 33.5300
1395.619629 94.403 33.5132
1405.732910 94.456 33.4987
1415.919434 94.508 33.4810
1426.179810 94.560 33.4667
1436.514526 94.613 33.4477
1446.924072 94.665 33.4388
1457.409058 94.717 33.4202
1467.970093 94.770 33.4050
1478.607666 94.822 33.3869
1489.322266 94.875 33.3776
1500.114502 94.928 33.3662
1510.984985 94.981 33.3535
1521.934204 95.034 33.3328
1532.962769 95.088 33.3215
1544.071289 95.142 33.3042
1555.260254 95.196 33.2883
1566.530273 95.251 33.2714
1577.881958 95.306 33.2629
1589.315918 95.361 33.2382
1600.832764 95.417 33.2181
1612.433105 95.474 33.2036
1624.117432 95.531 33.1812
1635.886475 95.589 33.1603
1647.740723 95.647 33.1350
1659.680908 95.706 33.1135
1671.707642 95.765 33.0856
1683.821533 95.826 33.0540
1696.023193 95.886 33.0185
1708.313232 95.948 32.9906
1720.692383 96.011 32.9543
1733.161255 96.074 32.9168
1745.720459 96.138 32.8675
1758.370728 96.202 32.8201
1771.112549 96.268 32.7633
1783.946777 96.334 32.7136
1796.874023 96.401 32.6619
1809.894897 96.469 32.5860
1823.010132 96.538 32.5168
1836.220459 96.608 32.4442
1849.526489 96.678 32.3613
1862.928955 96.750 32.2790
1876.428467 96.822 32.1819
1890.025879 96.895 32.0851
1903.721802 96.969 31.9749
1917.516968 97.044 31.8617
1931.412109 97.120 31.7358
1945.407959 97.196 31.6073
1959.505127 97.274 31.4678
1973.704468 97.352 31.3202
1988.006714 97.431 31.1678
2002.412598 97.511 30.9998
2016.922852 97.592 30.8248
2031.538330 97.673 30.6357
2046.259644 97.756 30.4373
2061.087646 97.839 30.2278
2076.023193 97.923 30.0128
2091.066895 98.007 29.7735
2106.219727 98.092 29.5284
2121.482178 98.178 29.2589
2136.855225 98.264 28.9895
2152.339844 98.351 28.7038
2167.936523 98.438 28.4113
2183.646240 98.526 28.0803
2199.469727 98.614 27.7467
2215.407959 98.702 27.3925
2231.461670 98.791 27.0229
2247.631836 98.880 26.6405
2263.919189 98.969 26.2423
2280.324463 99.057 25.8308
2296.848633 99.146 25.3919
2313.492432 99.235 24.9300
2330.256836 99.323 24.4484
2347.142822 99.410 23.9495
2364.151123 99.498 23.4350
2381.282715 99.584 22.9033
2398.538574 99.670 22.3413
2415.919434 99.755 21.7629
2433.426270 99.838 21.1686
2451.059814 99.921 20.5524
2468.821289 100.002 19.9077
2486.711426 100.081 19.2504
2504.731201 100.159 18.5501
2522.881592 100.234 17.8348
2541.163330 100.308 17.1059
2559.577637 100.379 16.3607
2578.125488 100.448 15.6103
2596.807617 100.514 14.7905
2615.625244 100.577 13.9742
2634.579102 100.637 13.1345
2653.670410 100.694 12.2903
2672.899902 100.747 11.4310
2692.268799 100.797 10.5488
2711.778076 100.843 9.6339
2731.428711 100.884 8.7124
2751.221680 100.922 7.7845
2771.158203 100.956 6.8428
2791.239258 100.985 5.8796
2811.465820 101.009 4.9169
2831.838867 101.029 3.9490
2852.359619 101.044 2.9611
2873.029053 101.054 1.9793
2893.848145 101.060 0.9903
2914.818115 101.060 -0.0155
2935.940186 101.056 -0.9841
2957.215332 101.046 -1.9832
2978.644531 101.032 -2.9706
3000.229004 101.012 -3.9568
3021.969971 100.988 -4.9179
3043.868408 100.959 -5.8831
3065.925537 100.925 -6.8517
3088.142578 100.886 -7.7905
3110.520508 100.842 -8.7071
3133.060547 100.794 -9.6259
3155.763916 100.742 -10.5267
3178.631836 100.685 -11.3890
3201.665527 100.624 -12.2345
3224.866211 100.560 -13.0599
3248.234863 100.492 -13.8618
3271.772949 100.420 -14.6320
3295.481445 100.347 -15.3705
3319.361816 100.270 -16.0754
3343.415283 100.193 -16.7494
3367.643066 100.115 -17.3896
3392.046387 100.037 -17.9830
3416.626465 99.959 -18.5550
3441.384766 99.884 -19.1074
3466.322510 99.811 -19.6180
3491.440918 99.740 -20.1307
3516.741455 99.672 -20.6366
3542.225098 99.606 -21.1301
3567.893555 99.542 -21.6274
3593.748047 99.478 -22.1543
3619.789795 99.413 -22.6562
3646.020264 99.347 -23.1713
3672.440918 99.279 -23.7108
3699.052979 99.209 -24.2357
3725.857910 99.136 -24.7452
3752.856934 99.061 -25.2576
3780.051758 98.983 -25.7391
3807.443604 98.904 -26.2174
3835.033936 98.822 -26.6777
3862.824219 98.739 -27.1138
3890.815918 98.655 -27.5459
3919.010254 98.569 -27.9608
3947.408936 98.482 -28.3438
3976.013428 98.393 -28.7359
4004.825195 98.303 -29.0844
4033.845703 98.210 -29.4188
4063.076660 98.114 -29.7352
4092.519287 98.017 -29.9912
4122.175293 97.917 -30.1939
4152.046387 97.818 -30.3200
4182.133789 97.725 -30.3771
4212.439453 97.644 -30.3552
4242.964355 97.581 -30.2970
4273.710449 97.538 -30.2657
4304.679688 97.509 -30.3422
4335.873047 97.484 -30.5633
