* Measurement data measured by REW V5.31.3
* Source: Headset (CX31993 HIFI AUDIO), MICROPHONE (Master Volume), R, volume: 0.400
* Format: 256k Log Swept Sine, 1 sweep at -11.9 dBFS with no timing reference
* Dated: 07 7, 25 10:22:13 AM
* REW Settings:
*  C-weighting compensation: Off
*  Target level: 75.0 dB
* Note: ; 
* Measurement: Truthear PURE taped R
* Smoothing: 1/12 octave
* Frequency Step: 96 ppo
* Start Frequency: 0.36621094 Hz
*
* Freq(Hz) SPL(dB) Phase(degrees)
0.366211 47.634 -31.9860
0.368865 47.632 -32.0301
0.371538 47.629 -32.0959
0.374230 47.626 -32.1784
0.376942 47.622 -32.2732
0.379673 47.618 -32.3770
0.382424 47.614 -32.4877
0.385196 47.610 -32.6039
0.387987 47.606 -32.7251
0.390798 47.601 -32.8506
0.393630 47.597 -32.9804
0.396483 47.593 -33.1143
0.399356 47.588 -33.2524
0.402250 47.584 -33.3945
0.405165 47.579 -33.5408
0.408101 47.575 -33.6913
0.411058 47.570 -33.8460
0.414037 47.566 -34.0049
0.417037 47.561 -34.1681
0.420059 47.556 -34.3356
0.423103 47.552 -34.5074
0.426169 47.547 -34.6836
0.429257 47.542 -34.8641
0.432368 47.537 -35.0491
0.435501 47.532 -35.2385
0.438656 47.528 -35.4325
0.441835 47.523 -35.6309
0.445037 47.518 -35.8338
0.448262 47.513 -36.0414
0.451510 47.508 -36.2535
0.454782 47.503 -36.4702
0.458077 47.497 -36.6915
0.461397 47.492 -36.9175
0.464740 47.487 -37.1482
0.468108 47.482 -37.3835
0.471500 47.477 -37.6235
0.474917 47.471 -37.8683
0.478358 47.466 -38.1178
0.481825 47.461 -38.3721
0.485316 47.455 -38.6311
0.488833 47.450 -38.8949
0.492375 47.444 -39.1635
0.495943 47.439 -39.4368
0.499537 47.433 -39.7150
0.503157 47.428 -39.9980
0.506803 47.422 -40.2857
0.510475 47.416 -40.5783
0.514175 47.411 -40.8757
0.517900 47.405 -41.1779
0.521653 47.399 -41.4849
0.525434 47.393 -41.7968
0.529241 47.387 -42.1134
0.533076 47.382 -42.4349
0.536939 47.376 -42.7611
0.540830 47.370 -43.0921
0.544749 47.363 -43.4279
0.548696 47.357 -43.7685
0.552673 47.351 -44.1139
0.556677 47.345 -44.4639
0.560711 47.339 -44.8188
0.564774 47.333 -45.1783
0.568867 47.326 -45.5426
0.572989 47.320 -45.9115
0.577141 47.313 -46.2852
0.581324 47.307 -46.6635
0.585536 47.300 -47.0465
0.589779 47.294 -47.4341
0.594053 47.287 -47.8263
0.598358 47.281 -48.2232
0.602694 47.274 -48.6246
0.607061 47.267 -49.0307
0.611460 47.260 -49.4413
0.615891 47.254 -49.8564
0.620354 47.247 -50.2762
0.624849 47.240 -50.7004
0.629377 47.233 -51.1293
0.633938 47.226 -51.5626
0.638532 47.219 -52.0005
0.643159 47.211 -52.4429
0.647819 47.204 -52.8899
0.652514 47.197 -53.3415
0.657242 47.190 -53.7976
0.662005 47.182 -54.2583
0.666802 47.175 -54.7236
0.671634 47.167 -55.1936
0.676501 47.160 -55.6683
0.681403 47.152 -56.1476
0.686341 47.145 -56.6318
0.691314 47.137 -57.1209
0.696324 47.129 -57.6149
0.701370 47.121 -58.1140
0.706452 47.113 -58.6185
0.711571 47.105 -59.1285
0.716728 47.097 -59.6446
0.721921 47.089 -60.1673
0.727153 47.080 -60.6975
0.732422 47.070 -61.2365
0.737729 47.060 -61.7854
0.743075 47.050 -62.3456
0.748460 47.038 -62.9181
0.753883 47.026 -63.5038
0.759346 47.012 -64.1032
0.764849 46.998 -64.7166
0.770391 46.982 -65.3442
0.775974 46.966 -65.9861
0.781597 46.949 -66.6423
0.787261 46.931 -67.3130
0.792966 46.912 -67.9981
0.798712 46.893 -68.6976
0.804500 46.873 -69.4114
0.810329 46.852 -70.1396
0.816201 46.830 -70.8821
0.822116 46.808 -71.6389
0.828073 46.786 -72.4099
0.834074 46.763 -73.1951
0.840118 46.739 -73.9945
0.846206 46.715 -74.8079
0.852338 46.691 -75.6354
0.858514 46.667 -76.4769
0.864735 46.642 -77.3324
0.871001 46.618 -78.2017
0.877313 46.593 -79.0850
0.883670 46.569 -79.9821
0.890074 46.545 -80.8931
0.896524 46.521 -81.8180
0.903020 46.497 -82.7567
0.909564 46.474 -83.7093
0.916155 46.451 -84.6759
0.922794 46.429 -85.6564
0.929481 46.408 -86.6511
0.936216 46.387 -87.6599
0.943000 46.368 -88.6832
0.949834 46.349 -89.7209
0.956717 46.332 -90.7734
0.963649 46.316 -91.8409
0.970632 46.302 -92.9236
0.977666 46.289 -94.0219
0.984750 46.278 -95.1362
0.991886 46.269 -96.2669
0.999074 46.262 -97.4145
1.006314 46.257 -98.5794
1.013606 46.255 -99.7623
1.020951 46.255 -100.9638
1.028349 46.258 -102.1847
1.035801 46.264 -103.4256
1.043307 46.273 -104.6876
1.050867 46.285 -105.9714
1.058482 46.301 -107.2782
1.066152 46.320 -108.6090
1.073878 46.344 -109.9650
1.081660 46.371 -111.3474
1.089498 46.402 -112.7572
1.097393 46.438 -114.1954
1.105345 46.477 -115.6625
1.113355 46.520 -117.1588
1.121423 46.567 -118.6839
1.129549 46.618 -120.2368
1.137734 46.673 -121.8165
1.145979 46.731 -123.4216
1.154283 46.793 -125.0503
1.162647 46.858 -126.7011
1.171072 46.927 -128.3720
1.179558 47.000 -130.0613
1.188106 47.076 -131.7669
1.196715 47.156 -133.4868
1.205387 47.239 -135.2190
1.214122 47.326 -136.9615
1.222920 47.416 -138.7123
1.231782 47.510 -140.4694
1.240708 47.607 -142.2308
1.249699 47.708 -143.9946
1.258754 47.812 -145.7591
1.267876 47.919 -147.5226
1.277063 48.030 -149.2834
1.286318 48.144 -151.0399
1.295639 48.261 -152.7909
1.305027 48.381 -154.5351
1.314484 48.504 -156.2714
1.324009 48.631 -157.9986
1.333604 48.760 -159.7160
1.343268 48.893 -161.4229
1.353002 49.028 -163.1184
1.362806 49.166 -164.8022
1.372681 49.306 -166.4738
1.382628 49.449 -168.1328
1.392647 49.595 -169.7791
1.402739 49.743 -171.4122
1.412904 49.894 -173.0319
1.423142 50.047 -174.6376
1.433455 50.203 -176.2285
1.443843 50.361 -177.8032
1.454305 50.523 -179.3596
1.464844 50.688 179.1052
1.475459 50.858 177.5946
1.486150 51.032 176.1118
1.496920 51.212 174.6595
1.507767 51.397 173.2390
1.518693 51.587 171.8508
1.529698 51.783 170.4946
1.540783 51.984 169.1694
1.551948 52.191 167.8740
1.563194 52.402 166.6068
1.574521 52.618 165.3660
1.585931 52.838 164.1498
1.597423 53.063 162.9562
1.608999 53.291 161.7833
1.620658 53.523 160.6292
1.632402 53.758 159.4918
1.644232 53.996 158.3694
1.656146 54.236 157.2601
1.668147 54.478 156.1620
1.680235 54.722 155.0734
1.692411 54.967 153.9927
1.704675 55.214 152.9182
1.717028 55.460 151.8484
1.729470 55.707 150.7820
1.742003 55.953 149.7175
1.754626 56.198 148.6541
1.767341 56.441 147.5907
1.780147 56.683 146.5270
1.793047 56.924 145.4632
1.806040 57.162 144.4002
1.819128 57.398 143.3398
1.832310 57.632 142.2850
1.845587 57.865 141.2391
1.858961 58.097 140.2054
1.872432 58.329 139.1864
1.886001 58.560 138.1832
1.899667 58.792 137.1965
1.913433 59.023 136.2257
1.927299 59.254 135.2702
1.941265 59.486 134.3289
1.955332 59.717 133.4003
1.969501 59.949 132.4832
1.983773 60.180 131.5762
1.998148 60.412 130.6777
2.012627 60.643 129.7863
2.027212 60.874 128.9006
2.041902 61.106 128.0192
2.056698 61.337 127.1406
2.071602 61.568 126.2636
2.086614 61.798 125.3870
2.101734 62.029 124.5095
2.116964 62.259 123.6302
2.132304 62.489 122.7485
2.147756 62.718 121.8639
2.163320 62.947 120.9768
2.178996 63.176 120.0880
2.194786 63.404 119.1995
2.210690 63.631 118.3134
2.226710 63.857 117.4324
2.242845 64.083 116.5582
2.259098 64.308 115.6920
2.275468 64.532 114.8343
2.291957 64.756 113.9846
2.308566 64.979 113.1424
2.325295 65.201 112.3067
2.342145 65.422 111.4765
2.359117 65.643 110.6505
2.376212 65.863 109.8275
2.393431 66.082 109.0062
2.410775 66.301 108.1854
2.428244 66.520 107.3638
2.445840 66.738 106.5403
2.463564 66.956 105.7137
2.481416 67.174 104.8831
2.499397 67.391 104.0479
2.517509 67.608 103.2077
2.535752 67.824 102.3628
2.554127 68.040 101.5141
2.572635 68.256 100.6631
2.591277 68.471 99.8117
2.610055 68.685 98.9616
2.628968 68.899 98.1139
2.648019 69.111 97.2692
2.667208 69.323 96.4277
2.686535 69.534 95.5891
2.706003 69.744 94.7528
2.725612 69.954 93.9181
2.745363 70.162 93.0841
2.765257 70.370 92.2499
2.785295 70.578 91.4146
2.805478 70.784 90.5771
2.825808 70.991 89.7365
2.846285 71.196 88.8919
2.866910 71.402 88.0427
2.887685 71.606 87.1886
2.908611 71.810 86.3295
2.929688 72.014 85.4660
2.950917 72.217 84.5992
2.972301 72.419 83.7301
2.993839 72.620 82.8600
3.015534 72.820 81.9895
3.037386 73.019 81.1191
3.059396 73.218 80.2491
3.081565 73.415 79.3792
3.103896 73.611 78.5092
3.126388 73.807 77.6386
3.149043 74.002 76.7670
3.171862 74.196 75.8936
3.194847 74.389 75.0178
3.217998 74.582 74.1388
3.241317 74.774 73.2562
3.264805 74.965 72.3695
3.288463 75.156 71.4785
3.312293 75.345 70.5834
3.336295 75.534 69.6848
3.360471 75.721 68.7834
3.384822 75.908 67.8796
3.409350 76.093 66.9742
3.434056 76.278 66.0677
3.458940 76.461 65.1602
3.484005 76.643 64.2520
3.509252 76.824 63.3429
3.534681 77.005 62.4329
3.560295 77.184 61.5215
3.586094 77.363 60.6083
3.612081 77.540 59.6928
3.638255 77.717 58.7745
3.664620 77.893 57.8531
3.691175 78.067 56.9281
3.717923 78.241 55.9998
3.744864 78.413 55.0684
3.772001 78.584 54.1346
3.799335 78.754 53.1990
3.826866 78.923 52.2621
3.854597 79.090 51.3246
3.882529 79.257 50.3868
3.910664 79.422 49.4489
3.939002 79.586 48.5109
3.967546 79.749 47.5724
3.996296 79.911 46.6331
4.025255 80.072 45.6924
4.054423 80.232 44.7495
4.083804 80.391 43.8040
4.113396 80.548 42.8562
4.143204 80.704 41.9064
4.173227 80.859 40.9551
4.203468 81.012 40.0033
4.233928 81.165 39.0515
4.264609 81.316 38.1005
4.295512 81.466 37.1506
4.326639 81.614 36.2019
4.357992 81.762 35.2542
4.389572 81.909 34.3068
4.421380 82.054 33.3591
4.453419 82.198 32.4105
4.485691 82.341 31.4609
4.518196 82.482 30.5104
4.550936 82.622 29.5598
4.583914 82.761 28.6097
4.617131 82.899 27.6610
4.650589 83.035 26.7143
4.684289 83.171 25.7700
4.718233 83.305 24.8281
4.752424 83.438 23.8883
4.786862 83.571 22.9500
4.821549 83.702 22.0124
4.856488 83.831 21.0754
4.891680 83.960 20.1392
4.927127 84.087 19.2039
4.962831 84.213 18.2705
4.998794 84.339 17.3395
5.035017 84.463 16.4116
5.071503 84.586 15.4868
5.108253 84.708 14.5653
5.145270 84.830 13.6465
5.182555 84.950 12.7300
5.220110 85.069 11.8154
5.257937 85.187 10.9025
5.296038 85.305 9.9917
5.334415 85.421 9.0834
5.373071 85.536 8.1779
5.412006 85.651 7.2757
5.451224 85.765 6.3770
5.490725 85.878 5.4814
5.530514 85.990 4.5889
5.570590 86.102 3.6989
5.610957 86.212 2.8112
5.651616 86.322 1.9257
5.692570 86.432 1.0427
5.733821 86.540 0.1624
5.775370 86.648 -0.7152
5.817221 86.755 -1.5898
5.859375 86.862 -2.4618
5.901834 86.968 -3.3312
5.944602 87.073 -4.1985
5.987679 87.178 -5.0638
6.031068 87.282 -5.9271
6.074771 87.386 -6.7886
6.118792 87.489 -7.6479
6.163131 87.591 -8.5053
6.207792 87.693 -9.3608
6.252776 87.794 -10.2145
6.298086 87.895 -11.0668
6.343725 87.995 -11.9178
6.389694 88.095 -12.7676
6.435996 88.194 -13.6161
6.482634 88.292 -14.4634
6.529610 88.390 -15.3093
6.576926 88.487 -16.1542
6.624585 88.584 -16.9980
6.672590 88.680 -17.8411
6.720942 88.776 -18.6835
6.769645 88.870 -19.5250
6.818700 88.964 -20.3658
6.868111 89.058 -21.2056
6.917881 89.151 -22.0443
6.968010 89.243 -22.8821
7.018504 89.334 -23.7191
7.069362 89.425 -24.5554
7.120590 89.515 -25.3909
7.172189 89.604 -26.2253
7.224161 89.692 -27.0586
7.276511 89.780 -27.8904
7.329239 89.866 -28.7207
7.382350 89.952 -29.5497
7.435845 90.037 -30.3772
7.489729 90.122 -31.2033
7.544002 90.205 -32.0276
7.598669 90.288 -32.8500
7.653732 90.370 -33.6700
7.709194 90.451 -34.4877
7.765058 90.531 -35.3031
7.821327 90.610 -36.1161
7.878004 90.689 -36.9268
7.935091 90.767 -37.7346
7.992592 90.844 -38.5396
8.050510 90.920 -39.3414
8.108847 90.996 -40.1401
8.167607 91.071 -40.9357
8.226793 91.145 -41.7283
8.286408 91.219 -42.5176
8.346454 91.291 -43.3036
8.406936 91.364 -44.0861
8.467856 91.435 -44.8652
8.529218 91.507 -45.6411
8.591024 91.577 -46.4136
8.653278 91.647 -47.1829
8.715983 91.717 -47.9489
8.779143 91.786 -48.7117
8.842760 91.854 -49.4713
8.906839 91.922 -50.2280
8.971381 91.990 -50.9818
9.036392 92.057 -51.7328
9.101873 92.124 -52.4811
9.167829 92.191 -53.2269
9.234263 92.257 -53.9702
9.301178 92.322 -54.7112
9.368578 92.387 -55.4501
9.436467 92.452 -56.1870
9.504847 92.517 -56.9220
9.573723 92.580 -57.6552
9.643099 92.644 -58.3867
9.712976 92.707 -59.1168
9.783361 92.770 -59.8455
9.854255 92.832 -60.5728
9.925663 92.894 -61.2988
9.997588 92.955 -62.0237
10.070035 93.016 -62.7476
10.143007 93.076 -63.4705
10.216507 93.135 -64.1923
10.290540 93.194 -64.9132
10.365109 93.253 -65.6331
10.440219 93.311 -66.3522
10.515873 93.368 -67.0702
10.592076 93.425 -67.7873
10.668830 93.481 -68.5033
10.746141 93.536 -69.2183
10.824012 93.591 -69.9321
10.902447 93.645 -70.6447
10.981451 93.698 -71.3558
11.061027 93.750 -72.0656
11.141180 93.802 -72.7737
11.221913 93.853 -73.4802
11.303232 93.903 -74.1849
11.385140 93.953 -74.8876
11.467641 94.002 -75.5883
11.550741 94.050 -76.2867
11.634442 94.098 -76.9829
11.718750 94.145 -77.6766
11.803669 94.191 -78.3680
11.889203 94.237 -79.0568
11.975357 94.282 -79.7431
12.062136 94.326 -80.4269
12.149543 94.370 -81.1082
12.237583 94.414 -81.7871
12.326262 94.457 -82.4637
12.415583 94.500 -83.1382
12.505552 94.542 -83.8105
12.596172 94.584 -84.4810
12.687449 94.625 -85.1498
12.779387 94.666 -85.8170
12.871992 94.707 -86.4827
12.965268 94.747 -87.1472
13.059220 94.787 -87.8104
13.153852 94.826 -88.4724
13.249170 94.865 -89.1332
13.345179 94.903 -89.7927
13.441884 94.941 -90.4507
13.539289 94.978 -91.1071
13.637401 95.015 -91.7614
13.736223 95.051 -92.4135
13.835761 95.086 -93.0629
13.936021 95.121 -93.7093
14.037007 95.155 -94.3523
14.138725 95.189 -94.9916
14.241180 95.222 -95.6269
14.344377 95.256 -96.2580
14.448323 95.289 -96.8849
14.553021 95.322 -97.5076
14.658478 95.355 -98.1264
14.764700 95.388 -98.7416
14.871691 95.421 -99.3539
14.979457 95.455 -99.9640
15.088005 95.489 -100.5725
15.197339 95.523 -101.1805
15.307465 95.558 -101.7889
15.418389 95.593 -102.3986
15.530117 95.628 -103.0103
15.642655 95.663 -103.6248
15.756008 95.698 -104.2423
15.870182 95.732 -104.8633
15.985184 95.766 -105.4873
16.101019 95.798 -106.1140
16.217694 95.830 -106.7426
16.335214 95.860 -107.3718
16.453586 95.889 -108.0002
16.572815 95.917 -108.6263
16.692909 95.943 -109.2483
16.813872 95.968 -109.8644
16.935713 95.991 -110.4729
17.058436 96.013 -111.0723
17.182048 96.034 -111.6615
17.306556 96.055 -112.2397
17.431967 96.075 -112.8066
17.558286 96.095 -113.3624
17.685521 96.116 -113.9078
17.813677 96.137 -114.4439
17.942762 96.159 -114.9724
18.072783 96.182 -115.4951
18.203746 96.205 -116.0138
18.335658 96.229 -116.5305
18.468526 96.254 -117.0471
18.602356 96.280 -117.5649
18.737156 96.305 -118.0850
18.872934 96.331 -118.6079
19.009695 96.356 -119.1338
19.147447 96.380 -119.6622
19.286197 96.404 -120.1925
19.425953 96.426 -120.7235
19.566721 96.448 -121.2540
19.708510 96.468 -121.7830
19.851326 96.488 -122.3094
19.995177 96.506 -122.8323
20.140070 96.524 -123.3513
20.286013 96.541 -123.8662
20.433014 96.557 -124.3772
20.581080 96.573 -124.8846
20.730219 96.589 -125.3892
20.880439 96.604 -125.8914
21.031747 96.618 -126.3917
21.184152 96.633 -126.8907
21.337661 96.646 -127.3883
21.492282 96.659 -127.8846
21.648024 96.672 -128.3794
21.804895 96.684 -128.8722
21.962902 96.695 -129.3627
22.122054 96.705 -129.8505
22.282360 96.715 -130.3354
22.443827 96.725 -130.8177
22.606464 96.735 -131.2975
22.770280 96.744 -131.7753
22.935283 96.753 -132.2518
23.101481 96.762 -132.7275
23.268884 96.770 -133.2028
23.437500 96.778 -133.6778
23.607338 96.786 -134.1523
23.778406 96.793 -134.6258
23.950714 96.800 -135.0974
24.124271 96.806 -135.5662
24.299086 96.811 -136.0311
24.475167 96.816 -136.4915
24.652524 96.821 -136.9466
24.831166 96.825 -137.3967
25.011103 96.830 -137.8423
25.192344 96.836 -138.2844
25.374898 96.842 -138.7241
25.558775 96.848 -139.1630
25.743984 96.855 -139.6021
25.930536 96.861 -140.0424
26.118439 96.868 -140.4842
26.307704 96.874 -140.9276
26.498341 96.880 -141.3717
26.690359 96.885 -141.8157
26.883768 96.889 -142.2582
27.078579 96.893 -142.6981
27.274801 96.896 -143.1344
27.472446 96.898 -143.5663
27.671522 96.900 -143.9938
27.872042 96.902 -144.4167
28.074014 96.903 -144.8355
28.277450 96.904 -145.2506
28.482360 96.904 -145.6626
28.688755 96.905 -146.0717
28.896645 96.905 -146.4781
29.106042 96.905 -146.8819
29.316957 96.904 -147.2828
29.529400 96.903 -147.6805
29.743382 96.901 -148.0750
29.958915 96.899 -148.4657
30.176009 96.897 -148.8528
30.394677 96.895 -149.2364
30.614929 96.892 -149.6168
30.836778 96.889 -149.9944
31.060234 96.887 -150.3701
31.285309 96.884 -150.7443
31.512015 96.882 -151.1181
31.740364 96.879 -151.4919
31.970368 96.877 -151.8663
32.202039 96.874 -152.2411
32.435388 96.870 -152.6161
32.670428 96.866 -152.9904
32.907171 96.861 -153.3629
33.145630 96.856 -153.7327
33.385817 96.851 -154.0989
33.627745 96.845 -154.4609
33.871425 96.839 -154.8190
34.116871 96.833 -155.1736
34.364096 96.827 -155.5254
34.613113 96.822 -155.8754
34.863934 96.816 -156.2241
35.116572 96.810 -156.5718
35.371041 96.804 -156.9183
35.627354 96.797 -157.2629
35.885525 96.790 -157.6050
36.145566 96.783 -157.9442
36.407492 96.775 -158.2800
36.671316 96.767 -158.6126
36.937051 96.758 -158.9422
37.204712 96.750 -159.2689
37.474313 96.740 -159.5926
37.745867 96.731 -159.9131
38.019389 96.721 -160.2302
38.294893 96.711 -160.5435
38.572394 96.700 -160.8531
38.851905 96.690 -161.1595
39.133442 96.679 -161.4636
39.417019 96.668 -161.7659
39.702651 96.658 -162.0670
39.990353 96.647 -162.3670
40.280140 96.635 -162.6654
40.572026 96.624 -162.9615
40.866028 96.612 -163.2543
41.162160 96.599 -163.5433
41.460438 96.587 -163.8280
41.760877 96.575 -164.1083
42.063494 96.563 -164.3844
42.368303 96.552 -164.6565
42.675322 96.541 -164.9248
42.984565 96.530 -165.1899
43.296048 96.520 -165.4529
43.609789 96.511 -165.7147
43.925804 96.502 -165.9769
44.244108 96.493 -166.2400
44.564719 96.485 -166.5044
44.887654 96.476 -166.7695
45.212928 96.467 -167.0341
45.540560 96.458 -167.2971
45.870565 96.449 -167.5580
46.202962 96.439 -167.8171
46.537768 96.430 -168.0756
46.875000 96.421 -168.3348
47.214676 96.411 -168.5958
47.556813 96.401 -168.8588
47.901429 96.390 -169.1226
48.248542 96.378 -169.3857
48.598171 96.365 -169.6465
48.950334 96.352 -169.9040
49.305048 96.338 -170.1577
49.662333 96.324 -170.4083
50.022206 96.310 -170.6564
50.384688 96.296 -170.9027
50.749796 96.281 -171.1471
51.117550 96.266 -171.3895
51.487969 96.251 -171.6293
51.861072 96.236 -171.8666
52.236879 96.221 -172.1011
52.615409 96.206 -172.3334
52.996681 96.191 -172.5636
53.380717 96.176 -172.7921
53.767536 96.160 -173.0190
54.157158 96.145 -173.2441
54.549603 96.130 -173.4675
54.944892 96.115 -173.6891
55.343045 96.099 -173.9087
55.744084 96.084 -174.1265
56.148028 96.068 -174.3427
56.554900 96.052 -174.5573
56.964720 96.036 -174.7697
57.377510 96.019 -174.9791
57.793291 96.002 -175.1839
58.212085 95.985 -175.3832
58.633914 95.968 -175.5772
59.058799 95.951 -175.7668
59.486764 95.934 -175.9537
59.917829 95.918 -176.1393
60.352019 95.902 -176.3245
60.789354 95.887 -176.5092
61.229859 95.871 -176.6933
61.673556 95.855 -176.8765
62.120468 95.838 -177.0583
62.570618 95.822 -177.2385
63.024031 95.806 -177.4170
63.480729 95.789 -177.5936
63.940736 95.773 -177.7684
64.404077 95.756 -177.9418
64.870776 95.739 -178.1136
65.340856 95.722 -178.2842
65.814343 95.705 -178.4531
66.291261 95.688 -178.6202
66.771635 95.671 -178.7856
67.255489 95.654 -178.9493
67.742850 95.637 -179.1115
68.233743 95.620 -179.2719
68.728193 95.603 -179.4306
69.226226 95.586 -179.5874
69.727867 95.568 -179.7423
70.233144 95.551 -179.8952
70.742083 95.534 179.9538
71.254709 95.517 179.8046
71.771050 95.499 179.6573
72.291132 95.482 179.5120
72.814984 95.465 179.3685
73.342631 95.447 179.2271
73.874102 95.430 179.0879
74.409424 95.413 178.9509
74.948626 95.395 178.8160
75.491734 95.378 178.6832
76.038779 95.360 178.5521
76.589787 95.343 178.4226
77.144788 95.326 178.2944
77.703811 95.308 178.1672
78.266885 95.291 178.0409
78.834039 95.274 177.9156
79.405303 95.256 177.7916
79.980706 95.239 177.6689
80.560280 95.221 177.5479
81.144053 95.204 177.4282
81.732056 95.186 177.3097
82.324320 95.169 177.1921
82.920876 95.152 177.0753
83.521755 95.135 176.9592
84.126988 95.118 176.8441
84.736607 95.100 176.7306
85.350643 95.083 176.6185
85.969129 95.066 176.5081
86.592097 95.049 176.3991
87.219579 95.032 176.2916
87.851608 95.015 176.1857
88.488217 94.998 176.0814
89.129439 94.981 175.9787
89.775308 94.963 175.8774
