* Measurement data measured by REW V5.31.3
* Source: Headset (CX31993 HIFI AUDIO), MICROPHONE (Master Volume), R, volume: 0.400
* Format: 256k Log Swept Sine, 1 sweep at -11.9 dBFS with no timing reference
* Dated: 06 25, 25 11:52:04 AM
* REW Settings:
*  C-weighting compensation: Off
*  Target level: 75.0 dB
* Note: ; 
* Measurement: Xiaomi Buds 6 Play R
* Smoothing: 1/12 octave
* Frequency Step: 96 ppo
* Start Frequency: 0.36621094 Hz
*
* Freq(Hz) SPL(dB) Phase(degrees)
0.366211 42.826 1.0677
0.368865 42.832 1.0842
0.371538 42.841 1.1087
0.374230 42.852 1.1392
0.376942 42.864 1.1739
0.379673 42.877 1.2114
0.382424 42.891 1.2510
0.385196 42.905 1.2921
0.387987 42.920 1.3344
0.390798 42.934 1.3778
0.393630 42.949 1.4221
0.396483 42.964 1.4674
0.399356 42.979 1.5135
0.402250 42.994 1.5606
0.405165 43.009 1.6086
0.408101 43.025 1.6576
0.411058 43.040 1.7074
0.414037 43.056 1.7582
0.417037 43.071 1.8100
0.420059 43.087 1.8628
0.423103 43.103 1.9165
0.426169 43.119 1.9713
0.429257 43.135 2.0270
0.432368 43.151 2.0838
0.435501 43.168 2.1416
0.438656 43.184 2.2004
0.441835 43.201 2.2603
0.445037 43.218 2.3212
0.448262 43.234 2.3833
0.451510 43.251 2.4464
0.454782 43.268 2.5106
0.458077 43.286 2.5759
0.461397 43.303 2.6424
0.464740 43.320 2.7099
0.468108 43.338 2.7786
0.471500 43.356 2.8485
0.474917 43.374 2.9195
0.478358 43.392 2.9917
0.481825 43.410 3.0651
0.485316 43.428 3.1396
0.488833 43.446 3.2154
0.492375 43.465 3.2923
0.495943 43.483 3.3705
0.499537 43.502 3.4499
0.503157 43.521 3.5305
0.506803 43.540 3.6123
0.510475 43.559 3.6953
0.514175 43.579 3.7796
0.517900 43.598 3.8652
0.521653 43.618 3.9519
0.525434 43.637 4.0400
0.529241 43.657 4.1293
0.533076 43.677 4.2198
0.536939 43.698 4.3116
0.540830 43.718 4.4046
0.544749 43.738 4.4989
0.548696 43.759 4.5945
0.552673 43.780 4.6913
0.556677 43.801 4.7893
0.560711 43.822 4.8886
0.564774 43.843 4.9891
0.568867 43.864 5.0908
0.572989 43.886 5.1938
0.577141 43.907 5.2979
0.581324 43.929 5.4033
0.585536 43.951 5.5099
0.589779 43.973 5.6176
0.594053 43.996 5.7265
0.598358 44.018 5.8365
0.602694 44.041 5.9476
0.607061 44.064 6.0599
0.611460 44.087 6.1733
0.615891 44.110 6.2877
0.620354 44.133 6.4031
0.624849 44.157 6.5196
0.629377 44.180 6.6371
0.633938 44.204 6.7555
0.638532 44.228 6.8749
0.643159 44.252 6.9952
0.647819 44.277 7.1163
0.652514 44.301 7.2383
0.657242 44.326 7.3611
0.662005 44.351 7.4846
0.666802 44.376 7.6089
0.671634 44.401 7.7338
0.676501 44.426 7.8594
0.681403 44.452 7.9855
0.686341 44.478 8.1122
0.691314 44.504 8.2394
0.696324 44.530 8.3671
0.701370 44.557 8.4952
0.706452 44.584 8.6237
0.711571 44.612 8.7526
0.716728 44.641 8.8819
0.721921 44.671 9.0118
0.727153 44.704 9.1425
0.732422 44.739 9.2742
0.737729 44.777 9.4073
0.743075 44.818 9.5420
0.748460 44.862 9.6787
0.753883 44.908 9.8173
0.759346 44.955 9.9581
0.764849 45.004 10.1010
0.770391 45.054 10.2458
0.775974 45.106 10.3926
0.781597 45.159 10.5411
0.787261 45.213 10.6912
0.792966 45.268 10.8428
0.798712 45.324 10.9958
0.804500 45.382 11.1499
0.810329 45.440 11.3050
0.816201 45.500 11.4610
0.822116 45.561 11.6176
0.828073 45.623 11.7747
0.834074 45.686 11.9322
0.840118 45.750 12.0898
0.846206 45.815 12.2473
0.852338 45.882 12.4047
0.858514 45.949 12.5616
0.864735 46.018 12.7179
0.871001 46.087 12.8734
0.877313 46.158 13.0280
0.883670 46.230 13.1813
0.890074 46.303 13.3333
0.896524 46.377 13.4837
0.903020 46.451 13.6323
0.909564 46.527 13.7789
0.916155 46.604 13.9234
0.922794 46.682 14.0654
0.929481 46.761 14.2049
0.936216 46.841 14.3416
0.943000 46.921 14.4752
0.949834 47.003 14.6057
0.956717 47.086 14.7328
0.963649 47.169 14.8562
0.970632 47.253 14.9758
0.977666 47.338 15.0915
0.984750 47.424 15.2029
0.991886 47.510 15.3099
0.999074 47.597 15.4123
1.006314 47.685 15.5099
1.013606 47.774 15.6025
1.020951 47.863 15.6899
1.028349 47.953 15.7719
1.035801 48.043 15.8485
1.043307 48.134 15.9193
1.050867 48.225 15.9843
1.058482 48.316 16.0434
1.066152 48.409 16.0965
1.073878 48.501 16.1438
1.081660 48.594 16.1855
1.089498 48.687 16.2220
1.097393 48.782 16.2541
1.105345 48.876 16.2824
1.113355 48.972 16.3079
1.121423 49.069 16.3313
1.129549 49.167 16.3530
1.137734 49.267 16.3731
1.145979 49.367 16.3918
1.154283 49.469 16.4090
1.162647 49.572 16.4245
1.171072 49.677 16.4382
1.179558 49.782 16.4499
1.188106 49.889 16.4594
1.196715 49.997 16.4664
1.205387 50.106 16.4707
1.214122 50.216 16.4722
1.222920 50.327 16.4705
1.231782 50.440 16.4656
1.240708 50.553 16.4572
1.249699 50.667 16.4451
1.258754 50.782 16.4291
1.267876 50.899 16.4090
1.277063 51.016 16.3846
1.286318 51.133 16.3557
1.295639 51.252 16.3222
1.305027 51.371 16.2838
1.314484 51.491 16.2403
1.324009 51.612 16.1916
1.333604 51.733 16.1375
1.343268 51.855 16.0778
1.353002 51.977 16.0124
1.362806 52.099 15.9410
1.372681 52.222 15.8635
1.382628 52.345 15.7798
1.392647 52.469 15.6896
1.402739 52.592 15.5930
1.412904 52.715 15.4897
1.423142 52.839 15.3799
1.433455 52.962 15.2636
1.443843 53.085 15.1410
1.454305 53.209 15.0127
1.464844 53.332 14.8792
1.475459 53.456 14.7415
1.486150 53.579 14.6003
1.496920 53.703 14.4563
1.507767 53.828 14.3098
1.518693 53.952 14.1610
1.529698 54.077 14.0100
1.540783 54.203 13.8566
1.551948 54.329 13.7009
1.563194 54.455 13.5425
1.574521 54.582 13.3813
1.585931 54.709 13.2172
1.597423 54.836 13.0499
1.608999 54.964 12.8791
1.620658 55.092 12.7048
1.632402 55.220 12.5267
1.644232 55.349 12.3446
1.656146 55.477 12.1583
1.668147 55.606 11.9676
1.680235 55.736 11.7724
1.692411 55.865 11.5723
1.704675 55.995 11.3673
1.717028 56.124 11.1570
1.729470 56.254 10.9415
1.742003 56.384 10.7204
1.754626 56.514 10.4936
1.767341 56.645 10.2610
1.780147 56.775 10.0225
1.793047 56.905 9.7782
1.806040 57.035 9.5281
1.819128 57.165 9.2724
1.832310 57.295 9.0117
1.845587 57.425 8.7465
1.858961 57.555 8.4772
1.872432 57.685 8.2045
1.886001 57.815 7.9286
1.899667 57.944 7.6497
1.913433 58.074 7.3681
1.927299 58.203 7.0837
1.941265 58.332 6.7966
1.955332 58.461 6.5069
1.969501 58.591 6.2145
1.983773 58.720 5.9195
1.998148 58.849 5.6216
2.012627 58.977 5.3211
2.027212 59.106 5.0177
2.041902 59.235 4.7114
2.056698 59.364 4.4022
2.071602 59.493 4.0900
2.086614 59.621 3.7747
2.101734 59.750 3.4563
2.116964 59.879 3.1346
2.132304 60.008 2.8097
2.147756 60.137 2.4815
2.163320 60.265 2.1500
2.178996 60.394 1.8153
2.194786 60.523 1.4775
2.210690 60.652 1.1369
2.226710 60.780 0.7936
2.242845 60.908 0.4480
2.259098 61.036 0.1001
2.275468 61.164 -0.2499
2.291957 61.291 -0.6019
2.308566 61.418 -0.9558
2.325295 61.545 -1.3117
2.342145 61.672 -1.6695
2.359117 61.798 -2.0292
2.376212 61.925 -2.3909
2.393431 62.051 -2.7546
2.410775 62.177 -3.1202
2.428244 62.303 -3.4879
2.445840 62.429 -3.8576
2.463564 62.555 -4.2295
2.481416 62.681 -4.6034
2.499397 62.807 -4.9796
2.517509 62.933 -5.3579
2.535752 63.059 -5.7383
2.554127 63.185 -6.1208
2.572635 63.311 -6.5051
2.591277 63.436 -6.8913
2.610055 63.562 -7.2790
2.628968 63.687 -7.6682
2.648019 63.812 -8.0590
2.667208 63.937 -8.4511
2.686535 64.062 -8.8448
2.706003 64.186 -9.2401
2.725612 64.310 -9.6369
2.745363 64.434 -10.0355
2.765257 64.558 -10.4359
2.785295 64.682 -10.8381
2.805478 64.806 -11.2423
2.825808 64.930 -11.6486
2.846285 65.054 -12.0571
2.866910 65.177 -12.4677
2.887685 65.301 -12.8805
2.908611 65.425 -13.2955
2.929688 65.549 -13.7125
2.950917 65.672 -14.1313
2.972301 65.796 -14.5518
2.993839 65.920 -14.9739
3.015534 66.043 -15.3975
3.037386 66.166 -15.8226
3.059396 66.289 -16.2494
3.081565 66.412 -16.6779
3.103896 66.534 -17.1083
3.126388 66.657 -17.5408
3.149043 66.779 -17.9755
3.171862 66.902 -18.4127
3.194847 67.024 -18.8524
3.217998 67.146 -19.2949
3.241317 67.268 -19.7403
3.264805 67.390 -20.1885
3.288463 67.512 -20.6397
3.312293 67.633 -21.0936
3.336295 67.755 -21.5502
3.360471 67.876 -22.0093
3.384822 67.998 -22.4707
3.409350 68.119 -22.9345
3.434056 68.239 -23.4006
3.458940 68.360 -23.8690
3.484005 68.480 -24.3399
3.509252 68.600 -24.8134
3.534681 68.720 -25.2896
3.560295 68.839 -25.7687
3.586094 68.958 -26.2508
3.612081 69.077 -26.7361
3.638255 69.196 -27.2248
3.664620 69.314 -27.7170
3.691175 69.432 -28.2127
3.717923 69.549 -28.7119
3.744864 69.666 -29.2144
3.772001 69.783 -29.7201
3.799335 69.899 -30.2287
3.826866 70.015 -30.7399
3.854597 70.130 -31.2536
3.882529 70.245 -31.7697
3.910664 70.359 -32.2880
3.939002 70.472 -32.8084
3.967546 70.585 -33.3312
3.996296 70.697 -33.8565
4.025255 70.809 -34.3844
4.054423 70.920 -34.9154
4.083804 71.030 -35.4495
4.113396 71.140 -35.9867
4.143204 71.249 -36.5267
4.173227 71.357 -37.0691
4.203468 71.464 -37.6134
4.233928 71.571 -38.1590
4.264609 71.677 -38.7055
4.295512 71.782 -39.2525
4.326639 71.886 -39.7998
4.357992 71.989 -40.3473
4.389572 72.092 -40.8954
4.421380 72.193 -41.4443
4.453419 72.294 -41.9945
4.485691 72.393 -42.5458
4.518196 72.492 -43.0981
4.550936 72.590 -43.6509
4.583914 72.687 -44.2035
4.617131 72.782 -44.7551
4.650589 72.877 -45.3050
4.684289 72.972 -45.8528
4.718233 73.065 -46.3982
4.752424 73.157 -46.9411
4.786862 73.249 -47.4818
4.821549 73.340 -48.0207
4.856488 73.429 -48.5579
4.891680 73.518 -49.0933
4.927127 73.606 -49.6265
4.962831 73.693 -50.1570
4.998794 73.779 -50.6841
5.035017 73.865 -51.2072
5.071503 73.950 -51.7260
5.108253 74.035 -52.2401
5.145270 74.119 -52.7497
5.182555 74.202 -53.2548
5.220110 74.285 -53.7559
5.257937 74.367 -54.2529
5.296038 74.448 -54.7459
5.334415 74.529 -55.2347
5.373071 74.610 -55.7192
5.412006 74.691 -56.1992
5.451224 74.771 -56.6744
5.490725 74.851 -57.1448
5.530514 74.932 -57.6104
5.570590 75.012 -58.0713
5.610957 75.091 -58.5280
5.651616 75.171 -58.9807
5.692570 75.251 -59.4297
5.733821 75.331 -59.8755
5.775370 75.411 -60.3183
5.817221 75.491 -60.7582
5.859375 75.571 -61.1955
5.901834 75.652 -61.6301
5.944602 75.733 -62.0624
5.987679 75.813 -62.4925
6.031068 75.895 -62.9209
6.074771 75.976 -63.3483
6.118792 76.057 -63.7751
6.163131 76.139 -64.2018
6.207792 76.221 -64.6288
6.252776 76.303 -65.0564
6.298086 76.385 -65.4846
6.343725 76.468 -65.9135
6.389694 76.550 -66.3435
6.435996 76.632 -66.7747
6.482634 76.715 -67.2076
6.529610 76.797 -67.6425
6.576926 76.879 -68.0796
6.624585 76.961 -68.5192
6.672590 77.043 -68.9612
6.720942 77.124 -69.4057
6.769645 77.205 -69.8524
6.818700 77.286 -70.3013
6.868111 77.366 -70.7522
6.917881 77.445 -71.2052
6.968010 77.524 -71.6601
7.018504 77.602 -72.1171
7.069362 77.680 -72.5759
7.120590 77.757 -73.0361
7.172189 77.833 -73.4975
7.224161 77.909 -73.9595
7.276511 77.983 -74.4218
7.329239 78.057 -74.8840
7.382350 78.130 -75.3462
7.435845 78.202 -75.8081
7.489729 78.273 -76.2694
7.544002 78.344 -76.7297
7.598669 78.414 -77.1886
7.653732 78.482 -77.6457
7.709194 78.551 -78.1008
7.765058 78.618 -78.5537
7.821327 78.685 -79.0044
7.878004 78.751 -79.4528
7.935091 78.817 -79.8988
7.992592 78.882 -80.3421
8.050510 78.947 -80.7828
8.108847 79.011 -81.2208
8.167607 79.074 -81.6561
8.226793 79.138 -82.0890
8.286408 79.201 -82.5196
8.346454 79.264 -82.9481
8.406936 79.326 -83.3746
8.467856 79.388 -83.7993
8.529218 79.450 -84.2225
8.591024 79.512 -84.6443
8.653278 79.574 -85.0650
8.715983 79.635 -85.4849
8.779143 79.696 -85.9043
8.842760 79.757 -86.3233
8.906839 79.818 -86.7423
8.971381 79.878 -87.1613
9.036392 79.938 -87.5805
9.101873 79.998 -88.0001
9.167829 80.058 -88.4202
9.234263 80.117 -88.8410
9.301178 80.175 -89.2626
9.368578 80.234 -89.6848
9.436467 80.292 -90.1077
9.504847 80.349 -90.5314
9.573723 80.406 -90.9558
9.643099 80.462 -91.3809
9.712976 80.518 -91.8066
9.783361 80.573 -92.2328
9.854255 80.628 -92.6595
9.925663 80.682 -93.0866
9.997588 80.736 -93.5140
10.070035 80.789 -93.9416
10.143007 80.842 -94.3694
10.216507 80.894 -94.7972
10.290540 80.945 -95.2249
10.365109 80.996 -95.6525
10.440219 81.046 -96.0798
10.515873 81.095 -96.5068
10.592076 81.144 -96.9333
10.668830 81.192 -97.3590
10.746141 81.240 -97.7841
10.824012 81.287 -98.2081
10.902447 81.334 -98.6310
10.981451 81.380 -99.0525
11.061027 81.425 -99.4725
11.141180 81.470 -99.8908
11.221913 81.515 -100.3072
11.303232 81.559 -100.7215
11.385140 81.602 -101.1335
11.467641 81.646 -101.5433
11.550741 81.689 -101.9508
11.634442 81.732 -102.3560
11.718750 81.775 -102.7590
11.803669 81.817 -103.1600
11.889203 81.860 -103.5592
11.975357 81.903 -103.9569
12.062136 81.945 -104.3536
12.149543 81.988 -104.7497
12.237583 82.031 -105.1457
12.326262 82.075 -105.5420
12.415583 82.118 -105.9390
12.505552 82.161 -106.3374
12.596172 82.205 -106.7373
12.687449 82.248 -107.1390
12.779387 82.291 -107.5427
12.871992 82.334 -107.9483
12.965268 82.377 -108.3557
13.059220 82.419 -108.7644
13.153852 82.460 -109.1740
13.249170 82.501 -109.5838
13.345179 82.542 -109.9931
13.441884 82.582 -110.4011
13.539289 82.621 -110.8070
13.637401 82.660 -111.2098
13.736223 82.698 -111.6091
13.835761 82.736 -112.0042
13.936021 82.775 -112.3949
14.037007 82.813 -112.7811
14.138725 82.852 -113.1631
14.241180 82.891 -113.5415
14.344377 82.930 -113.9172
14.448323 82.971 -114.2913
14.553021 83.012 -114.6652
14.658478 83.054 -115.0404
14.764700 83.097 -115.4183
14.871691 83.140 -115.8002
14.979457 83.184 -116.1874
15.088005 83.228 -116.5807
15.197339 83.271 -116.9803
15.307465 83.314 -117.3862
15.418389 83.356 -117.7975
15.530117 83.396 -118.2132
15.642655 83.436 -118.6313
15.756008 83.473 -119.0495
15.870182 83.509 -119.4655
15.985184 83.543 -119.8765
16.101019 83.575 -120.2800
16.217694 83.606 -120.6735
16.335214 83.636 -121.0554
16.453586 83.666 -121.4246
16.572815 83.696 -121.7806
16.692909 83.726 -122.1242
16.813872 83.757 -122.4570
16.935713 83.790 -122.7818
17.058436 83.824 -123.1017
17.182048 83.861 -123.4209
17.306556 83.899 -123.7433
17.431967 83.938 -124.0732
17.558286 83.979 -124.4139
17.685521 84.019 -124.7683
17.813677 84.060 -125.1378
17.942762 84.099 -125.5225
18.072783 84.135 -125.9210
18.203746 84.169 -126.3303
18.335658 84.199 -126.7459
18.468526 84.225 -127.1624
18.602356 84.246 -127.5732
18.737156 84.263 -127.9713
18.872934 84.277 -128.3500
19.009695 84.287 -128.7033
19.147447 84.296 -129.0261
19.286197 84.303 -129.3154
19.425953 84.311 -129.5703
19.566721 84.322 -129.7926
19.708510 84.335 -129.9864
19.851326 84.354 -130.1588
19.995177 84.378 -130.3187
20.140070 84.408 -130.4769
20.286013 84.444 -130.6447
20.433014 84.486 -130.8332
20.581080 84.533 -131.0526
20.730219 84.582 -131.3108
20.880439 84.633 -131.6132
21.031747 84.684 -131.9619
21.184152 84.732 -132.3557
21.337661 84.776 -132.7904
21.492282 84.814 -133.2585
21.648024 84.846 -133.7505
21.804895 84.870 -134.2551
21.962902 84.887 -134.7599
22.122054 84.896 -135.2529
22.282360 84.899 -135.7229
22.443827 84.897 -136.1605
22.606464 84.892 -136.5588
22.770280 84.885 -136.9144
22.935283 84.879 -137.2271
23.101481 84.876 -137.5004
23.268884 84.876 -137.7411
23.437500 84.882 -137.9586
23.607338 84.894 -138.1638
23.778406 84.912 -138.3680
23.950714 84.936 -138.5817
24.124271 84.964 -138.8136
24.299086 84.995 -139.0696
24.475167 85.028 -139.3528
24.652524 85.062 -139.6631
24.831166 85.095 -139.9980
25.011103 85.127 -140.3530
25.192344 85.157 -140.7222
25.374898 85.184 -141.0996
25.558775 85.208 -141.4795
25.743984 85.231 -141.8571
25.930536 85.252 -142.2292
26.118439 85.272 -142.5935
26.307704 85.291 -142.9496
26.498341 85.310 -143.2973
26.690359 85.329 -143.6376
26.883768 85.348 -143.9709
27.078579 85.366 -144.2980
27.274801 85.385 -144.6190
27.472446 85.404 -144.9338
27.671522 85.422 -145.2424
27.872042 85.441 -145.5450
28.074014 85.460 -145.8422
28.277450 85.479 -146.1353
28.482360 85.499 -146.4261
28.688755 85.519 -146.7168
28.896645 85.540 -147.0091
29.106042 85.560 -147.3042
29.316957 85.579 -147.6020
29.529400 85.597 -147.9007
29.743382 85.613 -148.1976
29.958915 85.628 -148.4886
30.176009 85.641 -148.7698
30.394677 85.654 -149.0383
30.614929 85.667 -149.2928
30.836778 85.681 -149.5345
31.060234 85.696 -149.7670
31.285309 85.714 -149.9962
31.512015 85.735 -150.2288
31.740364 85.757 -150.4710
31.970368 85.781 -150.7274
32.202039 85.805 -150.9997
32.435388 85.828 -151.2863
32.670428 85.849 -151.5830
32.907171 85.868 -151.8838
33.145630 85.886 -152.1825
33.385817 85.902 -152.4740
33.627745 85.918 -152.7554
33.871425 85.934 -153.0264
34.116871 85.950 -153.2885
34.364096 85.968 -153.5444
34.613113 85.987 -153.7964
34.863934 86.006 -154.0457
35.116572 86.026 -154.2921
35.371041 86.046 -154.5342
35.627354 86.067 -154.7703
35.885525 86.089 -155.0000
36.145566 86.112 -155.2244
36.407492 86.136 -155.4467
36.671316 86.162 -155.6715
36.937051 86.189 -155.9033
37.204712 86.216 -156.1454
37.474313 86.242 -156.3985
37.745867 86.267 -156.6608
38.019389 86.290 -156.9286
38.294893 86.310 -157.1967
38.572394 86.328 -157.4606
38.851905 86.344 -157.7169
39.133442 86.358 -157.9640
39.417019 86.371 -158.2019
39.702651 86.385 -158.4316
39.990353 86.398 -158.6546
40.280140 86.411 -158.8726
40.572026 86.425 -159.0868
40.866028 86.439 -159.2986
41.162160 86.454 -159.5096
41.460438 86.471 -159.7219
41.760877 86.490 -159.9382
42.063494 86.510 -160.1618
42.368303 86.532 -160.3965
42.675322 86.555 -160.6460
42.984565 86.579 -160.9129
43.296048 86.603 -161.1977
43.609789 86.626 -161.4980
43.925804 86.648 -161.8086
44.244108 86.667 -162.1218
44.564719 86.685 -162.4299
44.887654 86.702 -162.7273
45.212928 86.720 -163.0122
45.540560 86.738 -163.2868
45.870565 86.759 -163.5564
46.202962 86.781 -163.8268
46.537768 86.804 -164.1021
46.875000 86.826 -164.3834
47.214676 86.849 -164.6689
47.556813 86.870 -164.9556
47.901429 86.891 -165.2410
48.248542 86.911 -165.5244
48.598171 86.932 -165.8069
48.950334 86.952 -166.0909
49.305048 86.972 -166.3784
49.662333 86.991 -166.6709
50.022206 87.010 -166.9683
50.384688 87.029 -167.2697
50.749796 87.046 -167.5732
51.117550 87.063 -167.8767
51.487969 87.079 -168.1779
51.861072 87.095 -168.4754
52.236879 87.112 -168.7685
52.615409 87.129 -169.0579
52.996681 87.147 -169.3451
53.380717 87.166 -169.6322
53.767536 87.187 -169.9209
54.157158 87.208 -170.2128
54.549603 87.230 -170.5094
54.944892 87.252 -170.8122
55.343045 87.274 -171.1232
55.744084 87.296 -171.4444
56.148028 87.317 -171.7778
56.554900 87.336 -172.1244
56.964720 87.354 -172.4839
57.377510 87.368 -172.8546
57.793291 87.380 -173.2336
58.212085 87.389 -173.6177
58.633914 87.396 -174.0042
59.058799 87.401 -174.3917
59.486764 87.405 -174.7798
59.917829 87.408 -175.1690
60.352019 87.411 -175.5599
60.789354 87.414 -175.9533
61.229859 87.418 -176.3497
61.673556 87.421 -176.7487
62.120468 87.425 -177.1485
62.570618 87.428 -177.5459
63.024031 87.431 -177.9369
63.480729 87.434 -178.3190
63.940736 87.438 -178.6916
64.404077 87.442 -179.0562
64.870776 87.448 -179.4162
65.340856 87.455 -179.7771
65.814343 87.463 179.8525
66.291261 87.471 179.4627
66.771635 87.478 179.0464
67.255489 87.481 178.6044
67.742850 87.481 178.1463
68.233743 87.475 177.6852
68.728193 87.467 177.2307
69.226226 87.458 176.7852
69.727867 87.450 176.3447
70.233144 87.443 175.9036
70.742083 87.438 175.4583
71.254709 87.434 175.0079
71.771050 87.430 174.5546
72.291132 87.426 174.1025
72.814984 87.422 173.6562
73.342631 87.417 173.2188
73.874102 87.411 172.7906
74.409424 87.404 172.3699
74.948626 87.396 171.9553
75.491734 87.385 171.5467
76.038779 87.372 171.1444
76.589787 87.356 170.7480
77.144788 87.339 170.3551
77.703811 87.320 169.9612
78.266885 87.301 169.5609
78.834039 87.280 169.1497
79.405303 87.259 168.7263
79.980706 87.236 168.2930
80.560280 87.212 167.8536
81.144053 87.188 167.4100
81.732056 87.164 166.9619
82.324320 87.139 166.5082
82.920876 87.114 166.0491
83.521755 87.088 165.5864
84.126988 87.061 165.1234
84.736607 87.032 164.6633
85.350643 87.003 164.2077
85.969129 86.974 163.7568
86.592097 86.945 163.3093
87.219579 86.917 162.8630
87.851608 86.890 162.4163
88.488217 86.864 161.9687
89.129439 86.838 161.5237
89.775308 86.811 161.0884
90.425856 86.783 160.6709
91.081119 86.754 160.2766
91.741131 86.725 159.9060
92.405925 86.695 159.5547
93.075536 86.663 159.2148
93.750000 86.630 158.8773
94.429351 86.595 158.5345
95.113625 86.556 158.1817
95.802858 86.514 157.8170
96.497085 86.469 157.4409
97.196342 86.422 157.0548
97.900667 86.375 156.6606
