* Measurement data measured by REW V5.31.3
* Source: Headset (2- CX31993 HIFI AUDIO), MICROPHONE (Master Volume), R, volume: 0.200
* Format: 256k Log Swept Sine, 1 sweep at -11.9 dBFS with no timing reference
* Dated: 10 21, 25 11:11:33 AM
* REW Settings:
*  C-weighting compensation: Off
*  Target level: 75.0 dB
* Note: ; 
* Measurement: CCA Phoenix Deep R
* Smoothing: 1/12 octave
* Frequency Step: 96 ppo
* Start Frequency: 0.36621094 Hz
*
* Freq(Hz) SPL(dB) Phase(degrees)
0.366211 13.993 -38.9717
0.368865 14.021 -39.0661
0.371538 14.063 -39.2054
0.374230 14.114 -39.3764
0.376942 14.172 -39.5678
0.379673 14.234 -39.7715
0.382424 14.299 -39.9819
0.385196 14.365 -40.1959
0.387987 14.432 -40.4115
0.390798 14.500 -40.6276
0.393630 14.569 -40.8436
0.396483 14.639 -41.0591
0.399356 14.708 -41.2741
0.402250 14.779 -41.4883
0.405165 14.850 -41.7019
0.408101 14.921 -41.9146
0.411058 14.993 -42.1266
0.414037 15.066 -42.3378
0.417037 15.139 -42.5481
0.420059 15.212 -42.7578
0.423103 15.287 -42.9666
0.426169 15.361 -43.1747
0.429257 15.436 -43.3821
0.432368 15.512 -43.5888
0.435501 15.588 -43.7948
0.438656 15.665 -44.0002
0.441835 15.743 -44.2051
0.445037 15.821 -44.4094
0.448262 15.899 -44.6132
0.451510 15.978 -44.8166
0.454782 16.058 -45.0197
0.458077 16.138 -45.2225
0.461397 16.219 -45.4251
0.464740 16.301 -45.6275
0.468108 16.383 -45.8298
0.471500 16.465 -46.0322
0.474917 16.548 -46.2347
0.478358 16.632 -46.4374
0.481825 16.717 -46.6404
0.485316 16.802 -46.8438
0.488833 16.887 -47.0477
0.492375 16.973 -47.2523
0.495943 17.060 -47.4575
0.499537 17.148 -47.6635
0.503157 17.236 -47.8705
0.506803 17.325 -48.0786
0.510475 17.414 -48.2879
0.514175 17.504 -48.4985
0.517900 17.595 -48.7106
0.521653 17.687 -48.9242
0.525434 17.779 -49.1396
0.529241 17.871 -49.3569
0.533076 17.965 -49.5762
0.536939 18.059 -49.7976
0.540830 18.154 -50.0214
0.544749 18.249 -50.2477
0.548696 18.345 -50.4766
0.552673 18.442 -50.7083
0.556677 18.540 -50.9430
0.560711 18.638 -51.1809
0.564774 18.737 -51.4220
0.568867 18.837 -51.6667
0.572989 18.937 -51.9151
0.577141 19.038 -52.1674
0.581324 19.140 -52.4237
0.585536 19.243 -52.6844
0.589779 19.346 -52.9495
0.594053 19.450 -53.2193
0.598358 19.555 -53.4941
0.602694 19.661 -53.7739
0.607061 19.767 -54.0592
0.611460 19.874 -54.3500
0.615891 19.982 -54.6467
0.620354 20.091 -54.9495
0.624849 20.200 -55.2586
0.629377 20.311 -55.5744
0.633938 20.422 -55.8969
0.638532 20.534 -56.2267
0.643159 20.646 -56.5639
0.647819 20.760 -56.9088
0.652514 20.874 -57.2617
0.657242 20.989 -57.6230
0.662005 21.106 -57.9930
0.666802 21.222 -58.3720
0.671634 21.340 -58.7603
0.676501 21.459 -59.1582
0.681403 21.578 -59.5662
0.686341 21.698 -59.9847
0.691314 21.819 -60.4138
0.696324 21.941 -60.8541
0.701370 22.063 -61.3058
0.706452 22.186 -61.7692
0.711571 22.309 -62.2444
0.716728 22.432 -62.7312
0.721921 22.553 -63.2294
0.727153 22.672 -63.7379
0.732422 22.789 -64.2555
0.737729 22.903 -64.7804
0.743075 23.013 -65.3106
0.748460 23.121 -65.8445
0.753883 23.227 -66.3808
0.759346 23.333 -66.9185
0.764849 23.437 -67.4569
0.770391 23.540 -67.9956
0.775974 23.643 -68.5343
0.781597 23.746 -69.0729
0.787261 23.848 -69.6111
0.792966 23.949 -70.1491
0.798712 24.051 -70.6866
0.804500 24.152 -71.2239
0.810329 24.252 -71.7609
0.816201 24.352 -72.2978
0.822116 24.452 -72.8347
0.828073 24.552 -73.3716
0.834074 24.652 -73.9089
0.840118 24.751 -74.4468
0.846206 24.850 -74.9854
0.852338 24.949 -75.5251
0.858514 25.047 -76.0662
0.864735 25.146 -76.6089
0.871001 25.244 -77.1536
0.877313 25.342 -77.7008
0.883670 25.441 -78.2507
0.890074 25.539 -78.8039
0.896524 25.637 -79.3607
0.903020 25.735 -79.9217
0.909564 25.833 -80.4873
0.916155 25.932 -81.0580
0.922794 26.030 -81.6344
0.929481 26.129 -82.2171
0.936216 26.228 -82.8066
0.943000 26.327 -83.4035
0.949834 26.427 -84.0086
0.956717 26.527 -84.6224
0.963649 26.627 -85.2456
0.970632 26.728 -85.8790
0.977666 26.829 -86.5233
0.984750 26.931 -87.1792
0.991886 27.033 -87.8476
0.999074 27.137 -88.5293
1.006314 27.241 -89.2251
1.013606 27.346 -89.9360
1.020951 27.452 -90.6628
1.028349 27.558 -91.4064
1.035801 27.666 -92.1679
1.043307 27.775 -92.9482
1.050867 27.886 -93.7482
1.058482 27.997 -94.5688
1.066152 28.110 -95.4107
1.073878 28.224 -96.2744
1.081660 28.340 -97.1599
1.089498 28.457 -98.0667
1.097393 28.574 -98.9935
1.105345 28.693 -99.9381
1.113355 28.813 -100.8980
1.121423 28.933 -101.8708
1.129549 29.054 -102.8542
1.137734 29.175 -103.8463
1.145979 29.296 -104.8457
1.154283 29.418 -105.8512
1.162647 29.540 -106.8619
1.171072 29.663 -107.8769
1.179558 29.786 -108.8958
1.188106 29.909 -109.9179
1.196715 30.033 -110.9430
1.205387 30.158 -111.9706
1.214122 30.283 -113.0007
1.222920 30.409 -114.0331
1.231782 30.535 -115.0678
1.240708 30.662 -116.1049
1.249699 30.790 -117.1445
1.258754 30.919 -118.1869
1.267876 31.049 -119.2323
1.277063 31.179 -120.2812
1.286318 31.311 -121.3340
1.295639 31.443 -122.3911
1.305027 31.577 -123.4532
1.314484 31.711 -124.5209
1.324009 31.847 -125.5948
1.333604 31.985 -126.6756
1.343268 32.123 -127.7642
1.353002 32.263 -128.8613
1.362806 32.405 -129.9677
1.372681 32.548 -131.0843
1.382628 32.693 -132.2119
1.392647 32.839 -133.3514
1.402739 32.987 -134.5035
1.412904 33.138 -135.6687
1.423142 33.290 -136.8475
1.433455 33.444 -138.0395
1.443843 33.600 -139.2440
1.454305 33.759 -140.4589
1.464844 33.920 -141.6814
1.475459 34.083 -142.9074
1.486150 34.248 -144.1328
1.496920 34.415 -145.3542
1.507767 34.585 -146.5687
1.518693 34.757 -147.7747
1.529698 34.931 -148.9712
1.540783 35.107 -150.1579
1.551948 35.285 -151.3349
1.563194 35.465 -152.5027
1.574521 35.647 -153.6620
1.585931 35.830 -154.8137
1.597423 36.016 -155.9587
1.608999 36.204 -157.0982
1.620658 36.393 -158.2334
1.632402 36.584 -159.3656
1.644232 36.776 -160.4961
1.656146 36.970 -161.6263
1.668147 37.166 -162.7577
1.680235 37.363 -163.8916
1.692411 37.561 -165.0294
1.704675 37.760 -166.1727
1.717028 37.961 -167.3228
1.729470 38.162 -168.4811
1.742003 38.365 -169.6488
1.754626 38.569 -170.8270
1.767341 38.773 -172.0167
1.780147 38.978 -173.2183
1.793047 39.184 -174.4316
1.806040 39.391 -175.6556
1.819128 39.599 -176.8881
1.832310 39.807 -178.1256
1.845587 40.017 -179.3638
1.858961 40.228 179.4019
1.872432 40.440 178.1752
1.886001 40.654 176.9587
1.899667 40.870 175.7541
1.913433 41.087 174.5623
1.927299 41.305 173.3832
1.941265 41.524 172.2166
1.955332 41.745 171.0618
1.969501 41.967 169.9180
1.983773 42.190 168.7839
1.998148 42.414 167.6583
2.012627 42.639 166.5400
2.027212 42.865 165.4276
2.041902 43.091 164.3196
2.056698 43.318 163.2144
2.071602 43.545 162.1107
2.086614 43.773 161.0070
2.101734 44.000 159.9018
2.116964 44.228 158.7939
2.132304 44.456 157.6824
2.147756 44.684 156.5667
2.163320 44.912 155.4467
2.178996 45.139 154.3235
2.194786 45.366 153.1989
2.210690 45.594 152.0757
2.226710 45.821 150.9568
2.242845 46.048 149.8449
2.259098 46.275 148.7418
2.275468 46.502 147.6485
2.291957 46.729 146.5653
2.308566 46.957 145.4921
2.325295 47.184 144.4283
2.342145 47.411 143.3730
2.359117 47.639 142.3252
2.376212 47.866 141.2836
2.393431 48.093 140.2471
2.410775 48.320 139.2143
2.428244 48.547 138.1839
2.445840 48.774 137.1544
2.463564 49.000 136.1246
2.481416 49.226 135.0934
2.499397 49.452 134.0596
2.517509 49.677 133.0229
2.535752 49.902 131.9831
2.554127 50.127 130.9409
2.572635 50.351 129.8978
2.591277 50.574 128.8556
2.610055 50.797 127.8161
2.628968 51.019 126.7809
2.648019 51.241 125.7509
2.667208 51.462 124.7266
2.686535 51.682 123.7080
2.706003 51.902 122.6949
2.725612 52.121 121.6868
2.745363 52.339 120.6830
2.765257 52.557 119.6826
2.785295 52.775 118.6848
2.805478 52.991 117.6886
2.825808 53.208 116.6931
2.846285 53.423 115.6971
2.866910 53.639 114.7001
2.887685 53.853 113.7014
2.908611 54.067 112.7007
2.929688 54.280 111.6985
2.950917 54.493 110.6954
2.972301 54.705 109.6926
2.993839 54.915 108.6910
3.015534 55.125 107.6915
3.037386 55.334 106.6948
3.059396 55.542 105.7011
3.081565 55.749 104.7106
3.103896 55.955 103.7231
3.126388 56.160 102.7385
3.149043 56.365 101.7563
3.171862 56.569 100.7759
3.194847 56.772 99.7968
3.217998 56.974 98.8182
3.241317 57.175 97.8396
3.264805 57.376 96.8605
3.288463 57.576 95.8806
3.312293 57.776 94.9000
3.336295 57.974 93.9188
3.360471 58.171 92.9377
3.384822 58.367 91.9573
3.409350 58.562 90.9780
3.434056 58.756 90.0005
3.458940 58.949 89.0249
3.484005 59.141 88.0515
3.509252 59.332 87.0804
3.534681 59.522 86.1115
3.560295 59.712 85.1445
3.586094 59.900 84.1791
3.612081 60.088 83.2148
3.638255 60.275 82.2513
3.664620 60.461 81.2881
3.691175 60.646 80.3250
3.717923 60.830 79.3620
3.744864 61.013 78.3993
3.772001 61.195 77.4373
3.799335 61.376 76.4765
3.826866 61.556 75.5172
3.854597 61.734 74.5599
3.882529 61.912 73.6047
3.910664 62.089 72.6518
3.939002 62.266 71.7011
3.967546 62.441 70.7525
3.996296 62.616 69.8056
4.025255 62.789 68.8600
4.054423 62.962 67.9155
4.083804 63.134 66.9717
4.113396 63.305 66.0286
4.143204 63.475 65.0864
4.173227 63.644 64.1454
4.203468 63.812 63.2059
4.233928 63.979 62.2682
4.264609 64.146 61.3327
4.295512 64.311 60.3993
4.326639 64.476 59.4680
4.357992 64.640 58.5388
4.389572 64.803 57.6111
4.421380 64.966 56.6849
4.453419 65.128 55.7597
4.485691 65.289 54.8354
4.518196 65.448 53.9122
4.550936 65.608 52.9901
4.583914 65.766 52.0694
4.617131 65.924 51.1502
4.650589 66.080 50.2326
4.684289 66.237 49.3166
4.718233 66.392 48.4021
4.752424 66.547 47.4888
4.786862 66.701 46.5765
4.821549 66.855 45.6650
4.856488 67.007 44.7541
4.891680 67.159 43.8438
4.927127 67.311 42.9341
4.962831 67.461 42.0253
4.998794 67.611 41.1172
5.035017 67.760 40.2100
5.071503 67.908 39.3034
5.108253 68.056 38.3973
5.145270 68.203 37.4914
5.182555 68.350 36.5855
5.220110 68.496 35.6794
5.257937 68.640 34.7732
5.296038 68.785 33.8669
5.334415 68.928 32.9608
5.373071 69.071 32.0548
5.412006 69.213 31.1489
5.451224 69.354 30.2430
5.490725 69.494 29.3368
5.530514 69.634 28.4300
5.570590 69.773 27.5224
5.610957 69.911 26.6141
5.651616 70.048 25.7053
5.692570 70.184 24.7962
5.733821 70.320 23.8871
5.775370 70.454 22.9779
5.817221 70.588 22.0688
5.859375 70.721 21.1595
5.901834 70.852 20.2496
5.944602 70.983 19.3392
5.987679 71.113 18.4282
6.031068 71.242 17.5170
6.074771 71.369 16.6060
6.118792 71.496 15.6956
6.163131 71.622 14.7860
6.207792 71.746 13.8773
6.252776 71.870 12.9691
6.298086 71.992 12.0614
6.343725 72.114 11.1542
6.389694 72.234 10.2476
6.435996 72.353 9.3422
6.482634 72.471 8.4385
6.529610 72.589 7.5369
6.576926 72.705 6.6375
6.624585 72.820 5.7401
6.672590 72.934 4.8447
6.720942 73.047 3.9512
6.769645 73.159 3.0599
6.818700 73.270 2.1711
6.868111 73.380 1.2853
6.917881 73.489 0.4028
6.968010 73.597 -0.4764
7.018504 73.704 -1.3525
7.069362 73.811 -2.2256
7.120590 73.916 -3.0956
7.172189 74.021 -3.9624
7.224161 74.125 -4.8259
7.276511 74.229 -5.6859
7.329239 74.332 -6.5424
7.382350 74.434 -7.3954
7.435845 74.536 -8.2454
7.489729 74.637 -9.0923
7.544002 74.737 -9.9364
7.598669 74.837 -10.7776
7.653732 74.937 -11.6161
7.709194 75.036 -12.4520
7.765058 75.135 -13.2856
7.821327 75.233 -14.1171
7.878004 75.331 -14.9465
7.935091 75.429 -15.7744
7.992592 75.526 -16.6007
8.050510 75.622 -17.4258
8.108847 75.719 -18.2498
8.167607 75.814 -19.0729
8.226793 75.910 -19.8954
8.286408 76.005 -20.7173
8.346454 76.099 -21.5388
8.406936 76.193 -22.3600
8.467856 76.287 -23.1810
8.529218 76.379 -24.0021
8.591024 76.471 -24.8231
8.653278 76.563 -25.6440
8.715983 76.654 -26.4648
8.779143 76.744 -27.2853
8.842760 76.833 -28.1055
8.906839 76.922 -28.9255
8.971381 77.010 -29.7450
9.036392 77.097 -30.5637
9.101873 77.183 -31.3815
9.167829 77.268 -32.1980
9.234263 77.352 -33.0132
9.301178 77.436 -33.8270
9.368578 77.518 -34.6389
9.436467 77.600 -35.4489
9.504847 77.681 -36.2563
9.573723 77.761 -37.0614
9.643099 77.841 -37.8638
9.712976 77.919 -38.6635
9.783361 77.997 -39.4603
9.854255 78.074 -40.2540
9.925663 78.151 -41.0446
9.997588 78.227 -41.8322
10.070035 78.302 -42.6166
10.143007 78.377 -43.3979
10.216507 78.451 -44.1763
10.290540 78.524 -44.9518
10.365109 78.598 -45.7245
10.440219 78.670 -46.4947
10.515873 78.743 -47.2624
10.592076 78.814 -48.0278
10.668830 78.886 -48.7911
10.746141 78.957 -49.5525
10.824012 79.027 -50.3120
10.902447 79.097 -51.0699
10.981451 79.167 -51.8263
11.061027 79.236 -52.5811
11.141180 79.304 -53.3345
11.221913 79.372 -54.0865
11.303232 79.439 -54.8370
11.385140 79.506 -55.5861
11.467641 79.572 -56.3336
11.550741 79.637 -57.0793
11.634442 79.702 -57.8233
11.718750 79.766 -58.5653
11.803669 79.829 -59.3052
11.889203 79.892 -60.0428
11.975357 79.954 -60.7782
12.062136 80.015 -61.5109
12.149543 80.076 -62.2411
12.237583 80.136 -62.9686
12.326262 80.196 -63.6934
12.415583 80.255 -64.4154
12.505552 80.314 -65.1348
12.596172 80.372 -65.8514
12.687449 80.429 -66.5656
12.779387 80.486 -67.2772
12.871992 80.543 -67.9866
12.965268 80.599 -68.6937
13.059220 80.655 -69.3988
13.153852 80.710 -70.1019
13.249170 80.765 -70.8032
13.345179 80.819 -71.5028
13.441884 80.873 -72.2006
13.539289 80.926 -72.8967
13.637401 80.979 -73.5910
13.736223 81.031 -74.2836
13.835761 81.082 -74.9742
13.936021 81.133 -75.6628
14.037007 81.184 -76.3494
14.138725 81.233 -77.0336
14.241180 81.282 -77.7153
14.344377 81.331 -78.3945
14.448323 81.378 -79.0709
14.553021 81.426 -79.7446
14.658478 81.473 -80.4154
14.764700 81.519 -81.0834
14.871691 81.565 -81.7485
14.979457 81.610 -82.4110
15.088005 81.655 -83.0708
15.197339 81.700 -83.7281
15.307465 81.744 -84.3832
15.418389 81.788 -85.0361
15.530117 81.831 -85.6869
15.642655 81.874 -86.3358
15.756008 81.917 -86.9830
15.870182 81.959 -87.6284
15.985184 82.001 -88.2722
16.101019 82.042 -88.9141
16.217694 82.083 -89.5542
16.335214 82.123 -90.1923
16.453586 82.162 -90.8283
16.572815 82.201 -91.4620
16.692909 82.240 -92.0932
16.813872 82.278 -92.7218
16.935713 82.315 -93.3475
17.058436 82.352 -93.9705
17.182048 82.389 -94.5903
17.306556 82.425 -95.2074
17.431967 82.461 -95.8215
17.558286 82.496 -96.4328
17.685521 82.531 -97.0414
17.813677 82.566 -97.6476
17.942762 82.600 -98.2515
18.072783 82.634 -98.8531
18.203746 82.668 -99.4528
18.335658 82.701 -100.0505
18.468526 82.734 -100.6464
18.602356 82.767 -101.2404
18.737156 82.799 -101.8326
18.872934 82.831 -102.4230
19.009695 82.862 -103.0113
19.147447 82.893 -103.5975
19.286197 82.923 -104.1816
19.425953 82.953 -104.7634
19.566721 82.982 -105.3428
19.708510 83.012 -105.9199
19.851326 83.040 -106.4948
19.995177 83.069 -107.0673
20.140070 83.096 -107.6378
20.286013 83.124 -108.2063
20.433014 83.151 -108.7730
20.581080 83.178 -109.3380
20.730219 83.204 -109.9013
20.880439 83.230 -110.4630
21.031747 83.255 -111.0229
21.184152 83.280 -111.5811
21.337661 83.304 -112.1370
21.492282 83.328 -112.6905
21.648024 83.351 -113.2412
21.804895 83.374 -113.7887
21.962902 83.396 -114.3326
22.122054 83.417 -114.8728
22.282360 83.438 -115.4089
22.443827 83.459 -115.9412
22.606464 83.480 -116.4695
22.770280 83.501 -116.9944
22.935283 83.521 -117.5164
23.101481 83.542 -118.0359
23.268884 83.562 -118.5536
23.437500 83.583 -119.0702
23.607338 83.603 -119.5862
23.778406 83.624 -120.1019
23.950714 83.644 -120.6176
24.124271 83.663 -121.1331
24.299086 83.683 -121.6480
24.475167 83.701 -122.1620
24.652524 83.719 -122.6744
24.831166 83.737 -123.1846
25.011103 83.754 -123.6921
25.192344 83.771 -124.1964
25.374898 83.787 -124.6974
25.558775 83.803 -125.1951
25.743984 83.819 -125.6898
25.930536 83.835 -126.1820
26.118439 83.850 -126.6721
26.307704 83.866 -127.1606
26.498341 83.881 -127.6477
26.690359 83.896 -128.1335
26.883768 83.911 -128.6179
27.078579 83.925 -129.1004
27.274801 83.939 -129.5807
27.472446 83.952 -130.0581
27.671522 83.965 -130.5325
27.872042 83.978 -131.0037
28.074014 83.990 -131.4716
28.277450 84.003 -131.9366
28.482360 84.015 -132.3993
28.688755 84.027 -132.8602
28.896645 84.039 -133.3198
29.106042 84.051 -133.7783
29.316957 84.062 -134.2360
29.529400 84.073 -134.6925
29.743382 84.084 -135.1475
29.958915 84.093 -135.6005
30.176009 84.103 -136.0508
30.394677 84.112 -136.4980
30.614929 84.120 -136.9420
30.836778 84.129 -137.3826
31.060234 84.137 -137.8202
31.285309 84.145 -138.2551
31.512015 84.152 -138.6880
31.740364 84.160 -139.1192
31.970368 84.168 -139.5492
32.202039 84.175 -139.9781
32.435388 84.182 -140.4059
32.670428 84.189 -140.8325
32.907171 84.195 -141.2578
33.145630 84.201 -141.6816
33.385817 84.207 -142.1039
33.627745 84.213 -142.5251
33.871425 84.219 -142.9454
34.116871 84.224 -143.3654
34.364096 84.229 -143.7852
34.613113 84.234 -144.2049
34.863934 84.238 -144.6243
35.116572 84.242 -145.0428
35.371041 84.245 -145.4594
35.627354 84.248 -145.8733
35.885525 84.250 -146.2836
36.145566 84.252 -146.6898
36.407492 84.254 -147.0915
36.671316 84.256 -147.4890
36.937051 84.258 -147.8831
37.204712 84.261 -148.2744
37.474313 84.263 -148.6642
37.745867 84.266 -149.0536
38.019389 84.269 -149.4434
38.294893 84.272 -149.8340
38.572394 84.275 -150.2250
38.851905 84.277 -150.6153
39.133442 84.279 -151.0033
39.417019 84.280 -151.3871
39.702651 84.281 -151.7655
39.990353 84.282 -152.1378
40.280140 84.283 -152.5045
40.572026 84.285 -152.8674
40.866028 84.287 -153.2285
41.162160 84.289 -153.5900
41.460438 84.292 -153.9534
41.760877 84.294 -154.3195
42.063494 84.296 -154.6879
42.368303 84.297 -155.0576
42.675322 84.297 -155.4274
42.984565 84.296 -155.7950
43.296048 84.294 -156.1583
43.609789 84.290 -156.5151
43.925804 84.286 -156.8638
44.244108 84.281 -157.2041
44.564719 84.276 -157.5369
44.887654 84.271 -157.8640
45.212928 84.267 -158.1871
45.540560 84.263 -158.5070
45.870565 84.259 -158.8235
46.202962 84.255 -159.1367
46.537768 84.253 -159.4485
46.875000 84.252 -159.7636
47.214676 84.253 -160.0892
47.556813 84.254 -160.4322
47.901429 84.254 -160.7956
48.248542 84.252 -161.1763
48.598171 84.246 -161.5651
48.950334 84.237 -161.9502
49.305048 84.225 -162.3216
49.662333 84.211 -162.6747
50.022206 84.198 -163.0110
50.384688 84.186 -163.3359
50.749796 84.175 -163.6550
51.117550 84.165 -163.9722
51.487969 84.156 -164.2882
51.861072 84.147 -164.6029
52.236879 84.138 -164.9163
52.615409 84.130 -165.2292
52.996681 84.123 -165.5434
53.380717 84.116 -165.8599
53.767536 84.108 -166.1784
54.157158 84.100 -166.4978
54.549603 84.091 -166.8165
54.944892 84.082 -167.1328
55.343045 84.072 -167.4458
55.744084 84.062 -167.7548
56.148028 84.051 -168.0599
56.554900 84.041 -168.3618
56.964720 84.030 -168.6614
57.377510 84.020 -168.9595
57.793291 84.009 -169.2562
58.212085 83.997 -169.5510
58.633914 83.986 -169.8432
59.058799 83.974 -170.1326
59.486764 83.962 -170.4194
59.917829 83.950 -170.7042
60.352019 83.938 -170.9872
60.789354 83.926 -171.2688
61.229859 83.914 -171.5492
61.673556 83.901 -171.8286
62.120468 83.889 -172.1069
62.570618 83.876 -172.3839
63.024031 83.863 -172.6594
63.480729 83.850 -172.9334
63.940736 83.837 -173.2067
64.404077 83.825 -173.4803
64.870776 83.812 -173.7552
65.340856 83.799 -174.0317
65.814343 83.786 -174.3090
66.291261 83.773 -174.5860
66.771635 83.759 -174.8621
67.255489 83.746 -175.1369
67.742850 83.732 -175.4103
68.233743 83.717 -175.6816
68.728193 83.702 -175.9493
69.226226 83.687 -176.2126
69.727867 83.672 -176.4716
70.233144 83.656 -176.7269
70.742083 83.640 -176.9795
71.254709 83.624 -177.2299
71.771050 83.608 -177.4785
72.291132 83.591 -177.7255
72.814984 83.573 -177.9701
73.342631 83.555 -178.2103
73.874102 83.537 -178.4452
74.409424 83.519 -178.6760
74.948626 83.503 -178.9070
75.491734 83.486 -179.1422
76.038779 83.470 -179.3822
76.589787 83.452 -179.6246
77.144788 83.434 -179.8655
77.703811 83.415 179.8983
78.266885 83.395 179.6688
78.834039 83.376 179.4467
79.405303 83.357 179.2305
79.980706 83.338 179.0178
80.560280 83.320 178.8054
81.144053 83.302 178.5914
81.732056 83.284 178.3751
82.324320 83.265 178.1566
82.920876 83.246 177.9373
83.521755 83.226 177.7184
84.126988 83.206 177.5006
84.736607 83.186 177.2836
85.350643 83.166 177.0667
85.969129 83.146 176.8495
86.592097 83.125 176.6328
87.219579 83.105 176.4178
87.851608 83.084 176.2058
88.488217 83.063 175.9977
89.129439 83.042 175.7936
89.775308 83.020 175.5928
