* Measurement data measured by REW V5.31.3
* Source: Headset (2- CX31993 HIFI AUDIO), MICROPHONE (Master Volume), R, volume: 0.200
* Format: 256k Log Swept Sine, 1 sweep at -11.9 dBFS with no timing reference
* Dated: 10 21, 25 11:07:37 AM
* REW Settings:
*  C-weighting compensation: Off
*  Target level: 75.0 dB
* Note: ; 
* Measurement: CCA Phoenix L
* Smoothing: 1/12 octave
* Frequency Step: 96 ppo
* Start Frequency: 0.36621094 Hz
*
* Freq(Hz) SPL(dB) Phase(degrees)
0.366211 27.392 -31.6717
0.368865 27.399 -31.7279
0.371538 27.411 -31.8116
0.374230 27.424 -31.9158
0.376942 27.440 -32.0346
0.379673 27.457 -32.1636
0.382424 27.474 -32.2998
0.385196 27.492 -32.4416
0.387987 27.511 -32.5878
0.390798 27.529 -32.7380
0.393630 27.548 -32.8917
0.396483 27.566 -33.0490
0.399356 27.585 -33.2096
0.402250 27.605 -33.3736
0.405165 27.624 -33.5409
0.408101 27.643 -33.7116
0.411058 27.663 -33.8857
0.414037 27.682 -34.0632
0.417037 27.702 -34.2440
0.420059 27.722 -34.4282
0.423103 27.742 -34.6159
0.426169 27.762 -34.8069
0.429257 27.783 -35.0014
0.432368 27.803 -35.1993
0.435501 27.824 -35.4007
0.438656 27.845 -35.6054
0.441835 27.866 -35.8137
0.445037 27.887 -36.0253
0.448262 27.908 -36.2405
0.451510 27.930 -36.4590
0.454782 27.951 -36.6810
0.458077 27.973 -36.9065
0.461397 27.995 -37.1355
0.464740 28.017 -37.3679
0.468108 28.039 -37.6037
0.471500 28.062 -37.8430
0.474917 28.084 -38.0858
0.478358 28.107 -38.3320
0.481825 28.130 -38.5817
0.485316 28.153 -38.8348
0.488833 28.176 -39.0914
0.492375 28.200 -39.3514
0.495943 28.223 -39.6149
0.499537 28.247 -39.8818
0.503157 28.271 -40.1521
0.506803 28.295 -40.4259
0.510475 28.319 -40.7031
0.514175 28.344 -40.9838
0.517900 28.368 -41.2679
0.521653 28.393 -41.5555
0.525434 28.418 -41.8464
0.529241 28.443 -42.1409
0.533076 28.469 -42.4387
0.536939 28.494 -42.7400
0.540830 28.520 -43.0448
0.544749 28.546 -43.3531
0.548696 28.572 -43.6648
0.552673 28.598 -43.9799
0.556677 28.624 -44.2986
0.560711 28.651 -44.6208
0.564774 28.678 -44.9465
0.568867 28.705 -45.2757
0.572989 28.732 -45.6085
0.577141 28.760 -45.9449
0.581324 28.787 -46.2849
0.585536 28.815 -46.6285
0.589779 28.843 -46.9757
0.594053 28.871 -47.3267
0.598358 28.900 -47.6814
0.602694 28.928 -48.0399
0.607061 28.957 -48.4021
0.611460 28.986 -48.7683
0.615891 29.016 -49.1383
0.620354 29.045 -49.5124
0.624849 29.075 -49.8904
0.629377 29.105 -50.2726
0.633938 29.135 -50.6589
0.638532 29.165 -51.0495
0.643159 29.196 -51.4444
0.647819 29.226 -51.8437
0.652514 29.257 -52.2475
0.657242 29.289 -52.6560
0.662005 29.320 -53.0691
0.666802 29.352 -53.4871
0.671634 29.384 -53.9100
0.676501 29.416 -54.3380
0.681403 29.448 -54.7713
0.686341 29.481 -55.2099
0.691314 29.514 -55.6540
0.696324 29.547 -56.1037
0.701370 29.580 -56.5594
0.706452 29.614 -57.0211
0.711571 29.648 -57.4890
0.716728 29.682 -57.9633
0.721921 29.717 -58.4443
0.727153 29.753 -58.9321
0.732422 29.788 -59.4268
0.737729 29.825 -59.9285
0.743075 29.862 -60.4372
0.748460 29.900 -60.9529
0.753883 29.939 -61.4753
0.759346 29.977 -62.0043
0.764849 30.016 -62.5398
0.770391 30.056 -63.0814
0.775974 30.096 -63.6292
0.781597 30.136 -64.1827
0.787261 30.176 -64.7419
0.792966 30.217 -65.3066
0.798712 30.258 -65.8765
0.804500 30.300 -66.4515
0.810329 30.342 -67.0315
0.816201 30.384 -67.6163
0.822116 30.427 -68.2057
0.828073 30.470 -68.7996
0.834074 30.513 -69.3979
0.840118 30.557 -70.0005
0.846206 30.601 -70.6073
0.852338 30.646 -71.2181
0.858514 30.691 -71.8330
0.864735 30.737 -72.4519
0.871001 30.783 -73.0746
0.877313 30.829 -73.7013
0.883670 30.876 -74.3320
0.890074 30.923 -74.9665
0.896524 30.971 -75.6051
0.903020 31.020 -76.2477
0.909564 31.068 -76.8943
0.916155 31.118 -77.5452
0.922794 31.168 -78.2004
0.929481 31.218 -78.8601
0.936216 31.269 -79.5244
0.943000 31.321 -80.1935
0.949834 31.373 -80.8677
0.956717 31.426 -81.5471
0.963649 31.479 -82.2320
0.970632 31.533 -82.9228
0.977666 31.588 -83.6196
0.984750 31.643 -84.3230
0.991886 31.699 -85.0331
0.999074 31.755 -85.7506
1.006314 31.813 -86.4756
1.013606 31.871 -87.2088
1.020951 31.929 -87.9506
1.028349 31.989 -88.7015
1.035801 32.049 -89.4620
1.043307 32.110 -90.2329
1.050867 32.172 -91.0145
1.058482 32.235 -91.8077
1.066152 32.298 -92.6129
1.073878 32.363 -93.4309
1.081660 32.428 -94.2620
1.089498 32.494 -95.1067
1.097393 32.561 -95.9650
1.105345 32.628 -96.8369
1.113355 32.697 -97.7220
1.121423 32.766 -98.6197
1.129549 32.836 -99.5293
1.137734 32.906 -100.4503
1.145979 32.978 -101.3820
1.154283 33.050 -102.3238
1.162647 33.123 -103.2751
1.171072 33.197 -104.2354
1.179558 33.272 -105.2043
1.188106 33.347 -106.1812
1.196715 33.424 -107.1657
1.205387 33.501 -108.1574
1.214122 33.579 -109.1559
1.222920 33.658 -110.1610
1.231782 33.738 -111.1723
1.240708 33.820 -112.1897
1.249699 33.902 -113.2127
1.258754 33.985 -114.2414
1.267876 34.069 -115.2756
1.277063 34.155 -116.3152
1.286318 34.241 -117.3602
1.295639 34.329 -118.4105
1.305027 34.418 -119.4663
1.314484 34.508 -120.5277
1.324009 34.600 -121.5947
1.333604 34.693 -122.6677
1.343268 34.787 -123.7467
1.353002 34.883 -124.8322
1.362806 34.980 -125.9243
1.372681 35.078 -127.0236
1.382628 35.178 -128.1302
1.392647 35.280 -129.2448
1.402739 35.383 -130.3677
1.412904 35.488 -131.4992
1.423142 35.594 -132.6397
1.433455 35.702 -133.7894
1.443843 35.813 -134.9481
1.454305 35.925 -136.1153
1.464844 36.038 -137.2900
1.475459 36.154 -138.4705
1.486150 36.272 -139.6553
1.496920 36.393 -140.8424
1.507767 36.515 -142.0304
1.518693 36.639 -143.2180
1.529698 36.766 -144.4045
1.540783 36.895 -145.5890
1.551948 37.026 -146.7712
1.563194 37.158 -147.9509
1.574521 37.293 -149.1280
1.585931 37.430 -150.3025
1.597423 37.569 -151.4745
1.608999 37.710 -152.6445
1.620658 37.852 -153.8127
1.632402 37.997 -154.9797
1.644232 38.143 -156.1460
1.656146 38.291 -157.3123
1.668147 38.440 -158.4792
1.680235 38.591 -159.6476
1.692411 38.744 -160.8183
1.704675 38.898 -161.9922
1.717028 39.053 -163.1702
1.729470 39.210 -164.3532
1.742003 39.368 -165.5422
1.754626 39.528 -166.7380
1.767341 39.688 -167.9416
1.780147 39.849 -169.1534
1.793047 40.012 -170.3739
1.806040 40.176 -171.6028
1.819128 40.341 -172.8392
1.832310 40.507 -174.0815
1.845587 40.675 -175.3274
1.858961 40.844 -176.5742
1.872432 41.016 -177.8194
1.886001 41.189 -179.0610
1.899667 41.365 179.7026
1.913433 41.542 178.4726
1.927299 41.721 177.2496
1.941265 41.902 176.0342
1.955332 42.085 174.8264
1.969501 42.269 173.6263
1.983773 42.455 172.4336
1.998148 42.642 171.2480
2.012627 42.830 170.0690
2.027212 43.020 168.8961
2.041902 43.210 167.7283
2.056698 43.402 166.5651
2.071602 43.594 165.4056
2.086614 43.787 164.2488
2.101734 43.981 163.0938
2.116964 44.175 161.9397
2.132304 44.369 160.7857
2.147756 44.564 159.6313
2.163320 44.759 158.4761
2.178996 44.953 157.3204
2.194786 45.149 156.1652
2.210690 45.344 155.0118
2.226710 45.540 153.8620
2.242845 45.737 152.7175
2.259098 45.934 151.5796
2.275468 46.131 150.4492
2.291957 46.330 149.3267
2.308566 46.529 148.2125
2.325295 46.728 147.1062
2.342145 46.928 146.0078
2.359117 47.129 144.9165
2.376212 47.330 143.8319
2.393431 47.531 142.7532
2.410775 47.733 141.6797
2.428244 47.935 140.6104
2.445840 48.137 139.5444
2.463564 48.339 138.4809
2.481416 48.541 137.4189
2.499397 48.742 136.3577
2.517509 48.944 135.2968
2.535752 49.146 134.2358
2.554127 49.348 133.1752
2.572635 49.549 132.1157
2.591277 49.750 131.0583
2.610055 49.951 130.0044
2.628968 50.152 128.9548
2.648019 50.352 127.9103
2.667208 50.553 126.8713
2.686535 50.753 125.8379
2.706003 50.953 124.8099
2.725612 51.153 123.7871
2.745363 51.353 122.7691
2.765257 51.552 121.7552
2.785295 51.752 120.7450
2.805478 51.951 119.7376
2.825808 52.150 118.7324
2.846285 52.348 117.7287
2.866910 52.547 116.7258
2.887685 52.745 115.7234
2.908611 52.943 114.7211
2.929688 53.140 113.7192
2.950917 53.337 112.7182
2.972301 53.534 111.7188
2.993839 53.730 110.7218
3.015534 53.925 109.7276
3.037386 54.120 108.7368
3.059396 54.315 107.7495
3.081565 54.509 106.7657
3.103896 54.702 105.7853
3.126388 54.895 104.8080
3.149043 55.088 103.8335
3.171862 55.280 102.8613
3.194847 55.471 101.8908
3.217998 55.663 100.9215
3.241317 55.854 99.9531
3.264805 56.044 98.9850
3.288463 56.234 98.0173
3.312293 56.424 97.0499
3.336295 56.612 96.0831
3.360471 56.801 95.1174
3.384822 56.988 94.1532
3.409350 57.175 93.1909
3.434056 57.361 92.2307
3.458940 57.547 91.2726
3.484005 57.732 90.3167
3.509252 57.916 89.3629
3.534681 58.100 88.4108
3.560295 58.283 87.4603
3.586094 58.466 86.5109
3.612081 58.648 85.5622
3.638255 58.830 84.6140
3.664620 59.011 83.6660
3.691175 59.191 82.7181
3.717923 59.371 81.7705
3.744864 59.550 80.8235
3.772001 59.728 79.8774
3.799335 59.905 78.9324
3.826866 60.082 77.9887
3.854597 60.258 77.0466
3.882529 60.434 76.1059
3.910664 60.608 75.1667
3.939002 60.782 74.2287
3.967546 60.956 73.2916
3.996296 61.129 72.3551
4.025255 61.301 71.4189
4.054423 61.472 70.4829
4.083804 61.643 69.5469
4.113396 61.813 68.6110
4.143204 61.982 67.6754
4.173227 62.151 66.7405
4.203468 62.318 65.8066
4.233928 62.485 64.8737
4.264609 62.651 63.9421
4.295512 62.817 63.0117
4.326639 62.982 62.0823
4.357992 63.146 61.1538
4.389572 63.309 60.2257
4.421380 63.472 59.2979
4.453419 63.633 58.3700
4.485691 63.794 57.4422
4.518196 63.955 56.5146
4.550936 64.114 55.5875
4.583914 64.272 54.6612
4.617131 64.430 53.7360
4.650589 64.587 52.8120
4.684289 64.743 51.8893
4.718233 64.899 50.9676
4.752424 65.053 50.0468
4.786862 65.207 49.1264
4.821549 65.360 48.2063
4.856488 65.513 47.2863
4.891680 65.664 46.3666
4.927127 65.815 45.4476
4.962831 65.964 44.5295
4.998794 66.113 43.6127
5.035017 66.261 42.6972
5.071503 66.409 41.7832
5.108253 66.555 40.8705
5.145270 66.701 39.9586
5.182555 66.846 39.0475
5.220110 66.990 38.1368
5.257937 67.133 37.2267
5.296038 67.276 36.3174
5.334415 67.417 35.4093
5.373071 67.558 34.5027
5.412006 67.698 33.5976
5.451224 67.837 32.6942
5.490725 67.976 31.7922
5.530514 68.113 30.8915
5.570590 68.250 29.9917
5.610957 68.386 29.0927
5.651616 68.522 28.1948
5.692570 68.656 27.2981
5.733821 68.790 26.4030
5.775370 68.923 25.5095
5.817221 69.055 24.6177
5.859375 69.186 23.7276
5.901834 69.317 22.8389
5.944602 69.447 21.9512
5.987679 69.576 21.0647
6.031068 69.705 20.1794
6.074771 69.833 19.2954
6.118792 69.960 18.4130
6.163131 70.086 17.5322
6.207792 70.212 16.6530
6.252776 70.337 15.7751
6.298086 70.461 14.8985
6.343725 70.584 14.0229
6.389694 70.707 13.1484
6.435996 70.829 12.2752
6.482634 70.951 11.4033
6.529610 71.072 10.5327
6.576926 71.192 9.6634
6.624585 71.311 8.7953
6.672590 71.430 7.9281
6.720942 71.548 7.0619
6.769645 71.665 6.1965
6.818700 71.782 5.3323
6.868111 71.898 4.4692
6.917881 72.013 3.6072
6.968010 72.128 2.7463
7.018504 72.242 1.8864
7.069362 72.355 1.0273
7.120590 72.467 0.1690
7.172189 72.579 -0.6882
7.224161 72.690 -1.5443
7.276511 72.800 -2.3992
7.329239 72.910 -3.2528
7.382350 73.018 -4.1053
7.435845 73.126 -4.9568
7.489729 73.233 -5.8071
7.544002 73.340 -6.6561
7.598669 73.445 -7.5037
7.653732 73.550 -8.3494
7.709194 73.654 -9.1936
7.765058 73.757 -10.0361
7.821327 73.859 -10.8770
7.878004 73.961 -11.7160
7.935091 74.062 -12.5531
7.992592 74.162 -13.3881
8.050510 74.261 -14.2207
8.108847 74.360 -15.0511
8.167607 74.458 -15.8792
8.226793 74.555 -16.7051
8.286408 74.652 -17.5284
8.346454 74.747 -18.3493
8.406936 74.843 -19.1675
8.467856 74.937 -19.9831
8.529218 75.031 -20.7961
8.591024 75.124 -21.6066
8.653278 75.217 -22.4146
8.715983 75.309 -23.2200
8.779143 75.401 -24.0228
8.842760 75.492 -24.8233
8.906839 75.583 -25.6215
8.971381 75.673 -26.4174
9.036392 75.763 -27.2113
9.101873 75.852 -28.0032
9.167829 75.941 -28.7933
9.234263 76.029 -29.5817
9.301178 76.117 -30.3684
9.368578 76.204 -31.1538
9.436467 76.291 -31.9379
9.504847 76.378 -32.7208
9.573723 76.464 -33.5028
9.643099 76.550 -34.2838
9.712976 76.635 -35.0639
9.783361 76.719 -35.8433
9.854255 76.803 -36.6219
9.925663 76.886 -37.3998
9.997588 76.969 -38.1771
10.070035 77.051 -38.9536
10.143007 77.132 -39.7293
10.216507 77.213 -40.5042
10.290540 77.293 -41.2781
10.365109 77.373 -42.0509
10.440219 77.451 -42.8225
10.515873 77.529 -43.5929
10.592076 77.606 -44.3616
10.668830 77.682 -45.1287
10.746141 77.758 -45.8940
10.824012 77.833 -46.6573
10.902447 77.907 -47.4186
10.981451 77.980 -48.1775
11.061027 78.053 -48.9341
11.141180 78.125 -49.6883
11.221913 78.196 -50.4400
11.303232 78.267 -51.1892
11.385140 78.337 -51.9358
11.467641 78.406 -52.6799
11.550741 78.475 -53.4217
11.634442 78.543 -54.1610
11.718750 78.611 -54.8981
11.803669 78.679 -55.6331
11.889203 78.745 -56.3660
11.975357 78.812 -57.0970
12.062136 78.877 -57.8262
12.149543 78.942 -58.5537
12.237583 79.007 -59.2797
12.326262 79.071 -60.0040
12.415583 79.134 -60.7269
12.505552 79.197 -61.4481
12.596172 79.259 -62.1678
12.687449 79.320 -62.8857
12.779387 79.380 -63.6017
12.871992 79.440 -64.3157
12.965268 79.499 -65.0272
13.059220 79.557 -65.7361
13.153852 79.615 -66.4421
13.249170 79.672 -67.1448
13.345179 79.728 -67.8439
13.441884 79.783 -68.5392
13.539289 79.837 -69.2301
13.637401 79.891 -69.9166
13.736223 79.945 -70.5985
13.835761 79.998 -71.2757
13.936021 80.051 -71.9481
14.037007 80.103 -72.6157
14.138725 80.156 -73.2789
14.241180 80.208 -73.9379
14.344377 80.260 -74.5932
14.448323 80.312 -75.2452
14.553021 80.365 -75.8947
14.658478 80.418 -76.5424
14.764700 80.471 -77.1890
14.871691 80.524 -77.8354
14.979457 80.577 -78.4826
15.088005 80.631 -79.1313
15.197339 80.684 -79.7825
15.307465 80.737 -80.4365
15.418389 80.791 -81.0942
15.530117 80.843 -81.7559
15.642655 80.896 -82.4216
15.756008 80.947 -83.0915
15.870182 80.998 -83.7653
15.985184 81.048 -84.4424
16.101019 81.096 -85.1222
16.217694 81.143 -85.8037
16.335214 81.189 -86.4860
16.453586 81.233 -87.1677
16.572815 81.275 -87.8475
16.692909 81.317 -88.5244
16.813872 81.356 -89.1968
16.935713 81.395 -89.8638
17.058436 81.432 -90.5244
17.182048 81.468 -91.1779
17.306556 81.504 -91.8237
17.431967 81.539 -92.4617
17.558286 81.574 -93.0920
17.685521 81.608 -93.7150
17.813677 81.643 -94.3312
17.942762 81.677 -94.9415
18.072783 81.712 -95.5470
18.203746 81.747 -96.1486
18.335658 81.783 -96.7473
18.468526 81.818 -97.3441
18.602356 81.854 -97.9399
18.737156 81.890 -98.5355
18.872934 81.926 -99.1313
19.009695 81.962 -99.7277
19.147447 81.997 -100.3246
19.286197 82.032 -100.9224
19.425953 82.067 -101.5207
19.566721 82.101 -102.1194
19.708510 82.135 -102.7181
19.851326 82.168 -103.3167
19.995177 82.201 -103.9146
20.140070 82.232 -104.5116
20.286013 82.263 -105.1072
20.433014 82.293 -105.7008
20.581080 82.323 -106.2919
20.730219 82.351 -106.8799
20.880439 82.379 -107.4641
21.031747 82.406 -108.0438
21.184152 82.433 -108.6183
21.337661 82.459 -109.1871
21.492282 82.484 -109.7499
21.648024 82.510 -110.3068
21.804895 82.535 -110.8581
21.962902 82.561 -111.4045
22.122054 82.586 -111.9470
22.282360 82.612 -112.4870
22.443827 82.639 -113.0256
22.606464 82.665 -113.5642
22.770280 82.692 -114.1037
22.935283 82.718 -114.6446
23.101481 82.744 -115.1868
23.268884 82.769 -115.7299
23.437500 82.793 -116.2725
23.607338 82.817 -116.8132
23.778406 82.839 -117.3505
23.950714 82.860 -117.8827
24.124271 82.881 -118.4089
24.299086 82.902 -118.9287
24.475167 82.923 -119.4424
24.652524 82.944 -119.9512
24.831166 82.965 -120.4568
25.011103 82.987 -120.9614
25.192344 83.009 -121.4671
25.374898 83.032 -121.9756
25.558775 83.054 -122.4879
25.743984 83.075 -123.0040
25.930536 83.096 -123.5231
26.118439 83.116 -124.0434
26.307704 83.134 -124.5627
26.498341 83.150 -125.0789
26.690359 83.166 -125.5897
26.883768 83.181 -126.0939
27.078579 83.195 -126.5912
27.274801 83.209 -127.0821
27.472446 83.224 -127.5681
27.671522 83.239 -128.0507
27.872042 83.253 -128.5320
28.074014 83.268 -129.0131
28.277450 83.283 -129.4949
28.482360 83.298 -129.9772
28.688755 83.311 -130.4595
28.896645 83.325 -130.9407
29.106042 83.337 -131.4199
29.316957 83.350 -131.8964
29.529400 83.362 -132.3702
29.743382 83.373 -132.8416
29.958915 83.385 -133.3112
30.176009 83.396 -133.7798
30.394677 83.407 -134.2475
30.614929 83.418 -134.7139
30.836778 83.428 -135.1779
31.060234 83.437 -135.6381
31.285309 83.446 -136.0936
31.512015 83.455 -136.5438
31.740364 83.465 -136.9896
31.970368 83.475 -137.4328
32.202039 83.486 -137.8765
32.435388 83.497 -138.3236
32.670428 83.508 -138.7767
32.907171 83.519 -139.2366
33.145630 83.528 -139.7020
33.385817 83.535 -140.1694
33.627745 83.541 -140.6342
33.871425 83.544 -141.0910
34.116871 83.546 -141.5358
34.364096 83.548 -141.9666
34.613113 83.550 -142.3840
34.863934 83.552 -142.7914
35.116572 83.557 -143.1940
35.371041 83.563 -143.5973
35.627354 83.569 -144.0056
35.885525 83.576 -144.4207
36.145566 83.581 -144.8422
36.407492 83.586 -145.2667
36.671316 83.589 -145.6900
36.937051 83.590 -146.1076
37.204712 83.591 -146.5165
37.474313 83.592 -146.9160
37.745867 83.593 -147.3074
38.019389 83.596 -147.6940
38.294893 83.599 -148.0796
38.572394 83.604 -148.4678
38.851905 83.609 -148.8610
39.133442 83.614 -149.2596
39.417019 83.618 -149.6631
39.702651 83.622 -150.0695
39.990353 83.626 -150.4768
40.280140 83.628 -150.8832
40.572026 83.630 -151.2877
40.866028 83.632 -151.6898
41.162160 83.633 -152.0895
41.460438 83.634 -152.4874
41.760877 83.635 -152.8836
42.063494 83.635 -153.2784
42.368303 83.634 -153.6718
42.675322 83.633 -154.0630
42.984565 83.632 -154.4513
43.296048 83.629 -154.8357
43.609789 83.625 -155.2149
43.925804 83.621 -155.5880
44.244108 83.617 -155.9546
44.564719 83.612 -156.3152
44.887654 83.607 -156.6711
45.212928 83.603 -157.0247
45.540560 83.599 -157.3781
45.870565 83.595 -157.7327
46.202962 83.590 -158.0891
46.537768 83.585 -158.4461
46.875000 83.579 -158.8022
47.214676 83.572 -159.1558
47.556813 83.565 -159.5063
47.901429 83.559 -159.8546
48.248542 83.552 -160.2020
48.598171 83.546 -160.5496
48.950334 83.539 -160.8966
49.305048 83.533 -161.2415
49.662333 83.526 -161.5819
50.022206 83.519 -161.9174
50.384688 83.514 -162.2502
50.749796 83.509 -162.5848
51.117550 83.506 -162.9261
51.487969 83.502 -163.2771
51.861072 83.496 -163.6361
52.236879 83.489 -163.9978
52.615409 83.479 -164.3553
52.996681 83.468 -164.7031
53.380717 83.455 -165.0391
53.767536 83.443 -165.3647
54.157158 83.430 -165.6835
54.549603 83.418 -165.9989
54.944892 83.407 -166.3137
55.343045 83.395 -166.6295
55.744084 83.383 -166.9475
56.148028 83.371 -167.2684
56.554900 83.359 -167.5922
56.964720 83.346 -167.9178
57.377510 83.333 -168.2430
57.793291 83.319 -168.5651
58.212085 83.304 -168.8818
58.633914 83.290 -169.1914
59.058799 83.276 -169.4933
59.486764 83.262 -169.7875
59.917829 83.250 -170.0752
60.352019 83.239 -170.3584
60.789354 83.228 -170.6400
61.229859 83.218 -170.9224
61.673556 83.207 -171.2059
62.120468 83.196 -171.4880
62.570618 83.182 -171.7643
63.024031 83.167 -172.0309
63.480729 83.152 -172.2858
63.940736 83.135 -172.5287
64.404077 83.118 -172.7592
64.870776 83.102 -172.9772
65.340856 83.087 -173.1877
65.814343 83.075 -173.4038
66.291261 83.066 -173.6441
66.771635 83.058 -173.9227
67.255489 83.046 -174.2388
67.742850 83.028 -174.5759
68.233743 83.005 -174.9103
68.728193 82.977 -175.2242
69.226226 82.949 -175.5118
69.727867 82.922 -175.7778
70.233144 82.897 -176.0309
70.742083 82.875 -176.2794
71.254709 82.854 -176.5290
71.771050 82.836 -176.7822
72.291132 82.817 -177.0377
72.814984 82.798 -177.2916
73.342631 82.779 -177.5397
73.874102 82.761 -177.7805
74.409424 82.742 -178.0164
74.948626 82.724 -178.2509
75.491734 82.706 -178.4868
76.038779 82.688 -178.7247
76.589787 82.669 -178.9640
77.144788 82.650 -179.2042
77.703811 82.630 -179.4462
78.266885 82.611 -179.6914
78.834039 82.591 -179.9406
79.405303 82.571 179.8077
79.980706 82.550 179.5571
80.560280 82.528 179.3118
81.144053 82.507 179.0746
81.732056 82.485 178.8455
82.324320 82.465 178.6218
82.920876 82.445 178.4000
83.521755 82.424 178.1768
84.126988 82.404 177.9504
84.736607 82.382 177.7213
85.350643 82.358 177.4910
85.969129 82.334 177.2607
86.592097 82.308 177.0302
87.219579 82.282 176.7994
87.851608 82.255 176.5690
88.488217 82.227 176.3406
89.129439 82.199 176.1161
89.775308 82.171 175.8973
