* Measurement data measured by REW V5.31.3
* Source: Headset (2- CX31993 HIFI AUDIO), MICROPHONE (Master Volume), R, volume: 0.200
* Format: 256k Log Swept Sine, 1 sweep at -11.9 dBFS with no timing reference
* Dated: 10 21, 25 11:08:42 AM
* REW Settings:
*  C-weighting compensation: Off
*  Target level: 75.0 dB
* Note: ; 
* Measurement: CCA Phoenix R
* Smoothing: 1/12 octave
* Frequency Step: 96 ppo
* Start Frequency: 0.36621094 Hz
*
* Freq(Hz) SPL(dB) Phase(degrees)
0.366211 20.502 -50.8647
0.368865 20.518 -50.9459
0.371538 20.542 -51.0665
0.374230 20.572 -51.2159
0.376942 20.606 -51.3850
0.379673 20.642 -51.5672
0.382424 20.680 -51.7581
0.385196 20.718 -51.9549
0.387987 20.757 -52.1562
0.390798 20.797 -52.3611
0.393630 20.837 -52.5690
0.396483 20.878 -52.7798
0.399356 20.918 -52.9932
0.402250 20.960 -53.2093
0.405165 21.001 -53.4279
0.408101 21.043 -53.6490
0.411058 21.084 -53.8727
0.414037 21.127 -54.0989
0.417037 21.169 -54.3276
0.420059 21.212 -54.5588
0.423103 21.255 -54.7924
0.426169 21.299 -55.0286
0.429257 21.343 -55.2672
0.432368 21.387 -55.5082
0.435501 21.431 -55.7517
0.438656 21.476 -55.9977
0.441835 21.521 -56.2461
0.445037 21.567 -56.4969
0.448262 21.612 -56.7501
0.451510 21.659 -57.0058
0.454782 21.705 -57.2639
0.458077 21.752 -57.5244
0.461397 21.799 -57.7873
0.464740 21.846 -58.0527
0.468108 21.894 -58.3204
0.471500 21.942 -58.5906
0.474917 21.991 -58.8633
0.478358 22.040 -59.1384
0.481825 22.089 -59.4159
0.485316 22.138 -59.6960
0.488833 22.188 -59.9785
0.492375 22.239 -60.2635
0.495943 22.289 -60.5511
0.499537 22.340 -60.8412
0.503157 22.392 -61.1338
0.506803 22.443 -61.4291
0.510475 22.495 -61.7270
0.514175 22.548 -62.0276
0.517900 22.601 -62.3308
0.521653 22.654 -62.6368
0.525434 22.708 -62.9456
0.529241 22.762 -63.2572
0.533076 22.816 -63.5717
0.536939 22.871 -63.8891
0.540830 22.926 -64.2095
0.544749 22.982 -64.5330
0.548696 23.038 -64.8595
0.552673 23.094 -65.1892
0.556677 23.151 -65.5222
0.560711 23.209 -65.8585
0.564774 23.266 -66.1982
0.568867 23.324 -66.5414
0.572989 23.383 -66.8881
0.577141 23.442 -67.2386
0.581324 23.501 -67.5928
0.585536 23.561 -67.9508
0.589779 23.621 -68.3129
0.594053 23.682 -68.6790
0.598358 23.743 -69.0494
0.602694 23.804 -69.4240
0.607061 23.866 -69.8032
0.611460 23.929 -70.1869
0.615891 23.992 -70.5754
0.620354 24.055 -70.9687
0.624849 24.119 -71.3671
0.629377 24.183 -71.7707
0.633938 24.248 -72.1796
0.638532 24.313 -72.5940
0.643159 24.379 -73.0142
0.647819 24.445 -73.4402
0.652514 24.512 -73.8723
0.657242 24.579 -74.3106
0.662005 24.646 -74.7554
0.666802 24.715 -75.2069
0.671634 24.783 -75.6653
0.676501 24.852 -76.1309
0.681403 24.922 -76.6037
0.686341 24.992 -77.0842
0.691314 25.063 -77.5724
0.696324 25.134 -78.0687
0.701370 25.205 -78.5732
0.706452 25.277 -79.0861
0.711571 25.350 -79.6074
0.716728 25.423 -80.1370
0.721921 25.497 -80.6746
0.727153 25.571 -81.2197
0.732422 25.646 -81.7710
0.737729 25.721 -82.3275
0.743075 25.796 -82.8877
0.748460 25.872 -83.4504
0.753883 25.949 -84.0146
0.759346 26.026 -84.5797
0.764849 26.103 -85.1453
0.770391 26.181 -85.7109
0.775974 26.260 -86.2765
0.781597 26.339 -86.8419
0.787261 26.419 -87.4071
0.792966 26.499 -87.9719
0.798712 26.579 -88.5365
0.804500 26.661 -89.1008
0.810329 26.742 -89.6649
0.816201 26.825 -90.2289
0.822116 26.907 -90.7928
0.828073 26.991 -91.3569
0.834074 27.075 -91.9212
0.840118 27.160 -92.4859
0.846206 27.245 -93.0512
0.852338 27.331 -93.6173
0.858514 27.417 -94.1845
0.864735 27.504 -94.7529
0.871001 27.592 -95.3228
0.877313 27.680 -95.8945
0.883670 27.769 -96.4683
0.890074 27.859 -97.0446
0.896524 27.949 -97.6235
0.903020 28.040 -98.2056
0.909564 28.132 -98.7911
0.916155 28.224 -99.3804
0.922794 28.317 -99.9740
0.929481 28.411 -100.5722
0.936216 28.505 -101.1754
0.943000 28.600 -101.7841
0.949834 28.696 -102.3987
0.956717 28.793 -103.0198
0.963649 28.890 -103.6478
0.970632 28.989 -104.2831
0.977666 29.088 -104.9263
0.984750 29.188 -105.5779
0.991886 29.288 -106.2384
0.999074 29.390 -106.9085
1.006314 29.492 -107.5886
1.013606 29.595 -108.2793
1.020951 29.699 -108.9811
1.028349 29.804 -109.6947
1.035801 29.910 -110.4207
1.043307 30.017 -111.1595
1.050867 30.125 -111.9118
1.058482 30.233 -112.6778
1.066152 30.343 -113.4579
1.073878 30.454 -114.2522
1.081660 30.565 -115.0601
1.089498 30.678 -115.8808
1.097393 30.792 -116.7126
1.105345 30.906 -117.5534
1.113355 31.022 -118.4009
1.121423 31.139 -119.2529
1.129549 31.256 -120.1075
1.137734 31.375 -120.9637
1.145979 31.495 -121.8204
1.154283 31.616 -122.6773
1.162647 31.738 -123.5339
1.171072 31.860 -124.3899
1.179558 31.984 -125.2455
1.188106 32.109 -126.1005
1.196715 32.235 -126.9549
1.205387 32.362 -127.8090
1.214122 32.490 -128.6629
1.222920 32.620 -129.5167
1.231782 32.750 -130.3707
1.240708 32.881 -131.2253
1.249699 33.014 -132.0806
1.258754 33.147 -132.9371
1.267876 33.282 -133.7951
1.277063 33.417 -134.6551
1.286318 33.554 -135.5174
1.295639 33.692 -136.3826
1.305027 33.831 -137.2511
1.314484 33.971 -138.1234
1.324009 34.112 -139.0000
1.333604 34.254 -139.8814
1.343268 34.397 -140.7683
1.353002 34.542 -141.6611
1.362806 34.687 -142.5603
1.372681 34.833 -143.4666
1.382628 34.981 -144.3805
1.392647 35.130 -145.3024
1.402739 35.280 -146.2327
1.412904 35.430 -147.1718
1.423142 35.582 -148.1195
1.433455 35.736 -149.0756
1.443843 35.890 -150.0389
1.454305 36.045 -151.0078
1.464844 36.202 -151.9796
1.475459 36.360 -152.9512
1.486150 36.520 -153.9194
1.496920 36.681 -154.8817
1.507767 36.843 -155.8364
1.518693 37.007 -156.7827
1.529698 37.172 -157.7205
1.540783 37.339 -158.6500
1.551948 37.507 -159.5719
1.563194 37.676 -160.4869
1.574521 37.847 -161.3960
1.585931 38.020 -162.3002
1.597423 38.193 -163.2007
1.608999 38.368 -164.0984
1.620658 38.544 -164.9948
1.632402 38.721 -165.8907
1.644232 38.900 -166.7876
1.656146 39.079 -167.6865
1.668147 39.260 -168.5886
1.680235 39.441 -169.4952
1.692411 39.624 -170.4073
1.704675 39.807 -171.3262
1.717028 39.992 -172.2529
1.729470 40.177 -173.1885
1.742003 40.363 -174.1340
1.754626 40.550 -175.0902
1.767341 40.737 -176.0578
1.780147 40.925 -177.0370
1.793047 41.114 -178.0277
1.806040 41.303 -179.0290
1.819128 41.493 179.9611
1.832310 41.683 178.9454
1.845587 41.874 177.9274
1.858961 42.067 176.9106
1.872432 42.260 175.8979
1.886001 42.454 174.8912
1.899667 42.649 173.8916
1.913433 42.844 172.8994
1.927299 43.041 171.9145
1.941265 43.239 170.9365
1.955332 43.438 169.9647
1.969501 43.637 168.9983
1.983773 43.837 168.0363
1.998148 44.038 167.0775
2.012627 44.240 166.1212
2.027212 44.442 165.1659
2.041902 44.645 164.2106
2.056698 44.848 163.2541
2.071602 45.052 162.2953
2.086614 45.256 161.3329
2.101734 45.460 160.3661
2.116964 45.665 159.3937
2.132304 45.870 158.4151
2.147756 46.076 157.4299
2.163320 46.281 156.4383
2.178996 46.487 155.4412
2.194786 46.693 154.4405
2.210690 46.899 153.4385
2.226710 47.105 152.4380
2.242845 47.311 151.4413
2.259098 47.518 150.4498
2.275468 47.725 149.4644
2.291957 47.932 148.4852
2.308566 48.140 147.5121
2.325295 48.347 146.5444
2.342145 48.555 145.5815
2.359117 48.763 144.6223
2.376212 48.971 143.6656
2.393431 49.179 142.7106
2.410775 49.387 141.7560
2.428244 49.596 140.8005
2.445840 49.804 139.8431
2.463564 50.013 138.8826
2.481416 50.221 137.9179
2.499397 50.429 136.9484
2.517509 50.637 135.9736
2.535752 50.846 134.9936
2.554127 51.054 134.0092
2.572635 51.261 133.0220
2.591277 51.469 132.0338
2.610055 51.676 131.0464
2.628968 51.883 130.0612
2.648019 52.090 129.0790
2.667208 52.297 128.1004
2.686535 52.503 127.1253
2.706003 52.709 126.1532
2.725612 52.915 125.1838
2.745363 53.120 124.2162
2.765257 53.325 123.2496
2.785295 53.530 122.2831
2.805478 53.735 121.3158
2.825808 53.939 120.3467
2.846285 54.143 119.3748
2.866910 54.347 118.3995
2.887685 54.550 117.4202
2.908611 54.753 116.4369
2.929688 54.956 115.4500
2.950917 55.158 114.4605
2.972301 55.359 113.4696
2.993839 55.560 112.4783
3.015534 55.760 111.4877
3.037386 55.960 110.4983
3.059396 56.159 109.5104
3.081565 56.358 108.5240
3.103896 56.555 107.5391
3.126388 56.753 106.5551
3.149043 56.950 105.5716
3.171862 57.146 104.5880
3.194847 57.341 103.6035
3.217998 57.536 102.6176
3.241317 57.731 101.6295
3.264805 57.925 100.6388
3.288463 58.118 99.6452
3.312293 58.311 98.6490
3.336295 58.503 97.6505
3.360471 58.694 96.6504
3.384822 58.884 95.6494
3.409350 59.073 94.6483
3.434056 59.262 93.6474
3.458940 59.450 92.6472
3.484005 59.636 91.6478
3.509252 59.822 90.6492
3.534681 60.008 89.6512
3.560295 60.192 88.6534
3.586094 60.376 87.6555
3.612081 60.559 86.6569
3.638255 60.742 85.6571
3.664620 60.923 84.6555
3.691175 61.104 83.6521
3.717923 61.283 82.6469
3.744864 61.462 81.6402
3.772001 61.639 80.6326
3.799335 61.816 79.6247
3.826866 61.992 78.6172
3.854597 62.166 77.6105
3.882529 62.340 76.6049
3.910664 62.513 75.6006
3.939002 62.685 74.5976
3.967546 62.856 73.5955
3.996296 63.026 72.5939
4.025255 63.195 71.5923
4.054423 63.363 70.5899
4.083804 63.530 69.5867
4.113396 63.696 68.5825
4.143204 63.861 67.5778
4.173227 64.025 66.5732
4.203468 64.188 65.5693
4.233928 64.350 64.5668
4.264609 64.511 63.5661
4.295512 64.671 62.5676
4.326639 64.830 61.5713
4.357992 64.988 60.5768
4.389572 65.145 59.5838
4.421380 65.301 58.5916
4.453419 65.456 57.5996
4.485691 65.610 56.6079
4.518196 65.763 55.6165
4.550936 65.914 54.6261
4.583914 66.065 53.6373
4.617131 66.215 52.6506
4.650589 66.364 51.6666
4.684289 66.512 50.6856
4.718233 66.659 49.7074
4.752424 66.805 48.7319
4.786862 66.950 47.7584
4.821549 67.094 46.7864
4.856488 67.237 45.8158
4.891680 67.380 44.8465
4.927127 67.521 43.8791
4.962831 67.661 42.9139
4.998794 67.801 41.9515
5.035017 67.939 40.9923
5.071503 68.077 40.0364
5.108253 68.214 39.0837
5.145270 68.350 38.1339
5.182555 68.486 37.1865
5.220110 68.620 36.2412
5.257937 68.754 35.2979
5.296038 68.887 34.3569
5.334415 69.019 33.4184
5.373071 69.150 32.4828
5.412006 69.281 31.5504
5.451224 69.411 30.6211
5.490725 69.540 29.6948
5.530514 69.669 28.7712
5.570590 69.797 27.8500
5.610957 69.924 26.9310
5.651616 70.051 26.0142
5.692570 70.177 25.0997
5.733821 70.302 24.1876
5.775370 70.427 23.2782
5.817221 70.551 22.3713
5.859375 70.675 21.4669
5.901834 70.798 20.5646
5.944602 70.921 19.6643
5.987679 71.043 18.7657
6.031068 71.164 17.8690
6.074771 71.285 16.9741
6.118792 71.405 16.0810
6.163131 71.525 15.1898
6.207792 71.644 14.3003
6.252776 71.763 13.4124
6.298086 71.881 12.5259
6.343725 71.998 11.6405
6.389694 72.115 10.7563
6.435996 72.232 9.8733
6.482634 72.348 8.9915
6.529610 72.463 8.1110
6.576926 72.578 7.2316
6.624585 72.692 6.3533
6.672590 72.806 5.4756
6.720942 72.919 4.5987
6.769645 73.032 3.7225
6.818700 73.143 2.8473
6.868111 73.255 1.9729
6.917881 73.365 1.0996
6.968010 73.475 0.2271
7.018504 73.584 -0.6447
7.069362 73.693 -1.5159
7.120590 73.801 -2.3863
7.172189 73.908 -3.2559
7.224161 74.015 -4.1245
7.276511 74.121 -4.9919
7.329239 74.226 -5.8584
7.382350 74.331 -6.7238
7.435845 74.434 -7.5883
7.489729 74.537 -8.4517
7.544002 74.640 -9.3140
7.598669 74.741 -10.1749
7.653732 74.842 -11.0343
7.709194 74.942 -11.8922
7.765058 75.042 -12.7487
7.821327 75.141 -13.6038
7.878004 75.239 -14.4573
7.935091 75.336 -15.3093
7.992592 75.433 -16.1594
8.050510 75.529 -17.0077
8.108847 75.624 -17.8541
8.167607 75.719 -18.6987
8.226793 75.813 -19.5416
8.286408 75.906 -20.3827
8.346454 75.998 -21.2217
8.406936 76.090 -22.0588
8.467856 76.182 -22.8939
8.529218 76.273 -23.7272
8.591024 76.363 -24.5586
8.653278 76.452 -25.3881
8.715983 76.541 -26.2157
8.779143 76.629 -27.0414
8.842760 76.717 -27.8652
8.906839 76.804 -28.6874
8.971381 76.891 -29.5077
9.036392 76.977 -30.3263
9.101873 77.062 -31.1431
9.167829 77.146 -31.9581
9.234263 77.231 -32.7715
9.301178 77.314 -33.5831
9.368578 77.397 -34.3931
9.436467 77.479 -35.2013
9.504847 77.561 -36.0077
9.573723 77.642 -36.8123
9.643099 77.722 -37.6152
9.712976 77.802 -38.4161
9.783361 77.881 -39.2151
9.854255 77.959 -40.0121
9.925663 78.037 -40.8070
9.997588 78.114 -41.5997
10.070035 78.190 -42.3901
10.143007 78.266 -43.1783
10.216507 78.341 -43.9640
10.290540 78.415 -44.7472
10.365109 78.489 -45.5278
10.440219 78.562 -46.3057
10.515873 78.635 -47.0809
10.592076 78.707 -47.8534
10.668830 78.778 -48.6230
10.746141 78.849 -49.3899
10.824012 78.919 -50.1540
10.902447 78.989 -50.9153
10.981451 79.058 -51.6738
11.061027 79.127 -52.4297
11.141180 79.196 -53.1829
11.221913 79.263 -53.9336
11.303232 79.331 -54.6818
11.385140 79.398 -55.4277
11.467641 79.464 -56.1714
11.550741 79.531 -56.9130
11.634442 79.596 -57.6526
11.718750 79.661 -58.3903
11.803669 79.726 -59.1260
11.889203 79.790 -59.8601
11.975357 79.854 -60.5925
12.062136 79.918 -61.3232
12.149543 79.980 -62.0523
12.237583 80.043 -62.7798
12.326262 80.104 -63.5056
12.415583 80.166 -64.2299
12.505552 80.226 -64.9523
12.596172 80.286 -65.6731
12.687449 80.346 -66.3921
12.779387 80.404 -67.1093
12.871992 80.463 -67.8246
12.965268 80.521 -68.5381
13.059220 80.578 -69.2496
13.153852 80.634 -69.9594
13.249170 80.690 -70.6672
13.345179 80.746 -71.3733
13.441884 80.801 -72.0775
13.539289 80.855 -72.7802
13.637401 80.909 -73.4811
13.736223 80.962 -74.1805
13.835761 81.015 -74.8784
13.936021 81.067 -75.5747
14.037007 81.118 -76.2695
14.138725 81.169 -76.9628
14.241180 81.219 -77.6542
14.344377 81.268 -78.3438
14.448323 81.317 -79.0312
14.553021 81.364 -79.7164
14.658478 81.411 -80.3987
14.764700 81.457 -81.0781
14.871691 81.503 -81.7542
14.979457 81.548 -82.4265
15.088005 81.591 -83.0948
15.197339 81.635 -83.7589
15.307465 81.678 -84.4186
15.418389 81.720 -85.0737
15.530117 81.762 -85.7244
15.642655 81.803 -86.3708
15.756008 81.845 -87.0132
15.870182 81.886 -87.6519
15.985184 81.927 -88.2875
16.101019 81.968 -88.9204
16.217694 82.009 -89.5514
16.335214 82.050 -90.1810
16.453586 82.091 -90.8099
16.572815 82.132 -91.4385
16.692909 82.172 -92.0671
16.813872 82.212 -92.6963
16.935713 82.252 -93.3259
17.058436 82.291 -93.9562
17.182048 82.329 -94.5867
17.306556 82.367 -95.2171
17.431967 82.404 -95.8471
17.558286 82.440 -96.4761
17.685521 82.475 -97.1035
17.813677 82.510 -97.7288
17.942762 82.543 -98.3513
18.072783 82.576 -98.9706
18.203746 82.608 -99.5865
18.335658 82.640 -100.1986
18.468526 82.671 -100.8069
18.602356 82.702 -101.4114
18.737156 82.732 -102.0123
18.872934 82.762 -102.6096
19.009695 82.792 -103.2038
19.147447 82.821 -103.7950
19.286197 82.850 -104.3836
19.425953 82.879 -104.9698
19.566721 82.908 -105.5537
19.708510 82.936 -106.1357
19.851326 82.965 -106.7158
19.995177 82.992 -107.2942
20.140070 83.020 -107.8710
20.286013 83.048 -108.4466
20.433014 83.075 -109.0211
20.581080 83.101 -109.5946
20.730219 83.128 -110.1675
20.880439 83.154 -110.7399
21.031747 83.180 -111.3118
21.184152 83.205 -111.8832
21.337661 83.229 -112.4541
21.492282 83.253 -113.0239
21.648024 83.276 -113.5920
21.804895 83.299 -114.1579
21.962902 83.320 -114.7205
22.122054 83.341 -115.2789
22.282360 83.361 -115.8323
22.443827 83.380 -116.3799
22.606464 83.399 -116.9210
22.770280 83.418 -117.4556
22.935283 83.437 -117.9837
23.101481 83.456 -118.5059
23.268884 83.475 -119.0228
23.437500 83.495 -119.5359
23.607338 83.515 -120.0463
23.778406 83.536 -120.5555
23.950714 83.557 -121.0648
24.124271 83.578 -121.5753
24.299086 83.599 -122.0875
24.475167 83.620 -122.6019
24.652524 83.641 -123.1182
24.831166 83.661 -123.6356
25.011103 83.680 -124.1531
25.192344 83.698 -124.6695
25.374898 83.715 -125.1832
25.558775 83.732 -125.6931
25.743984 83.748 -126.1982
25.930536 83.763 -126.6978
26.118439 83.778 -127.1920
26.307704 83.793 -127.6812
26.498341 83.808 -128.1662
26.690359 83.823 -128.6484
26.883768 83.839 -129.1292
27.078579 83.854 -129.6096
27.274801 83.870 -130.0911
27.472446 83.885 -130.5740
27.671522 83.900 -131.0586
27.872042 83.914 -131.5447
28.074014 83.927 -132.0316
28.277450 83.940 -132.5183
28.482360 83.951 -133.0038
28.688755 83.961 -133.4872
28.896645 83.971 -133.9675
29.106042 83.980 -134.4437
29.316957 83.988 -134.9155
29.529400 83.996 -135.3824
29.743382 84.003 -135.8443
29.958915 84.010 -136.3016
30.176009 84.017 -136.7549
30.394677 84.025 -137.2054
30.614929 84.033 -137.6549
30.836778 84.041 -138.1052
31.060234 84.049 -138.5580
31.285309 84.057 -139.0148
31.512015 84.065 -139.4758
31.740364 84.072 -139.9404
31.970368 84.077 -140.4066
32.202039 84.081 -140.8710
32.435388 84.084 -141.3301
32.670428 84.085 -141.7802
32.907171 84.085 -142.2189
33.145630 84.086 -142.6451
33.385817 84.087 -143.0601
33.627745 84.089 -143.4663
33.871425 84.093 -143.8676
34.116871 84.099 -144.2679
34.364096 84.105 -144.6705
34.613113 84.112 -145.0776
34.863934 84.119 -145.4896
35.116572 84.127 -145.9059
35.371041 84.133 -146.3254
35.627354 84.140 -146.7468
35.885525 84.145 -147.1689
36.145566 84.150 -147.5914
36.407492 84.155 -148.0137
36.671316 84.158 -148.4352
36.937051 84.161 -148.8547
37.204712 84.163 -149.2707
37.474313 84.164 -149.6815
37.745867 84.164 -150.0860
38.019389 84.164 -150.4839
38.294893 84.164 -150.8763
38.572394 84.165 -151.2650
38.851905 84.166 -151.6523
39.133442 84.167 -152.0401
39.417019 84.168 -152.4288
39.702651 84.168 -152.8180
39.990353 84.168 -153.2059
40.280140 84.166 -153.5905
40.572026 84.164 -153.9699
40.866028 84.162 -154.3435
41.162160 84.159 -154.7114
41.460438 84.157 -155.0745
41.760877 84.155 -155.4340
42.063494 84.153 -155.7913
42.368303 84.151 -156.1476
42.675322 84.150 -156.5043
42.984565 84.148 -156.8629
43.296048 84.147 -157.2249
43.609789 84.145 -157.5916
43.925804 84.142 -157.9631
44.244108 84.139 -158.3387
44.564719 84.134 -158.7162
44.887654 84.127 -159.0930
45.212928 84.119 -159.4664
45.540560 84.111 -159.8351
45.870565 84.102 -160.1991
46.202962 84.093 -160.5591
46.537768 84.083 -160.9158
46.875000 84.074 -161.2693
47.214676 84.064 -161.6187
47.556813 84.055 -161.9628
47.901429 84.047 -162.3011
48.248542 84.040 -162.6348
48.598171 84.034 -162.9662
48.950334 84.029 -163.2980
49.305048 84.025 -163.6323
49.662333 84.022 -163.9702
50.022206 84.020 -164.3121
50.384688 84.017 -164.6588
50.749796 84.014 -165.0109
51.117550 84.010 -165.3682
51.487969 84.004 -165.7281
51.861072 83.995 -166.0852
52.236879 83.983 -166.4324
52.615409 83.969 -166.7642
52.996681 83.955 -167.0795
53.380717 83.940 -167.3817
53.767536 83.926 -167.6775
54.157158 83.913 -167.9735
54.549603 83.899 -168.2733
54.944892 83.885 -168.5774
55.343045 83.871 -168.8843
55.744084 83.856 -169.1924
56.148028 83.841 -169.5013
56.554900 83.827 -169.8113
56.964720 83.814 -170.1235
57.377510 83.801 -170.4390
57.793291 83.790 -170.7582
58.212085 83.778 -171.0808
58.633914 83.767 -171.4045
59.058799 83.755 -171.7258
59.486764 83.743 -172.0390
59.917829 83.729 -172.3390
60.352019 83.715 -172.6221
60.789354 83.701 -172.8878
61.229859 83.686 -173.1390
61.673556 83.671 -173.3807
62.120468 83.655 -173.6177
62.570618 83.637 -173.8530
63.024031 83.616 -174.0876
63.480729 83.591 -174.3207
63.940736 83.562 -174.5476
64.404077 83.528 -174.7577
64.870776 83.492 -174.9373
65.340856 83.458 -175.0799
65.814343 83.431 -175.1990
66.291261 83.414 -175.3311
66.771635 83.408 -175.5215
67.255489 83.407 -175.7985
67.742850 83.404 -176.1578
68.233743 83.396 -176.5690
68.728193 83.382 -176.9956
69.226226 83.365 -177.4136
69.727867 83.346 -177.8130
70.233144 83.326 -178.1901
70.742083 83.306 -178.5403
71.254709 83.286 -178.8588
71.771050 83.266 -179.1442
72.291132 83.246 -179.3992
72.814984 83.227 -179.6280
73.342631 83.208 -179.8357
73.874102 83.189 179.9713
74.409424 83.171 179.7850
74.948626 83.152 179.5987
75.491734 83.132 179.4077
76.038779 83.112 179.2092
76.589787 83.091 179.0002
77.144788 83.070 178.7773
77.703811 83.049 178.5398
78.266885 83.028 178.2906
78.834039 83.006 178.0360
79.405303 82.983 177.7830
79.980706 82.962 177.5366
80.560280 82.942 177.2983
81.144053 82.923 177.0654
81.732056 82.906 176.8329
82.324320 82.889 176.5965
82.920876 82.870 176.3552
83.521755 82.850 176.1112
84.126988 82.827 175.8674
84.736607 82.801 175.6251
85.350643 82.773 175.3833
85.969129 82.743 175.1400
86.592097 82.712 174.8937
87.219579 82.680 174.6454
87.851608 82.646 174.3975
88.488217 82.613 174.1530
89.129439 82.579 173.9142
