* Measurement data measured by REW V5.31.3
* Source: Headset (2- CX31993 HIFI AUDIO), MICROPHONE (Master Volume), R, volume: 0.250
* Format: 256k Log Swept Sine, 1 sweep at -12.0 dBFS with no timing reference
* Dated: 11 9, 24 11:46:08 AM
* REW Settings:
*  C-weighting compensation: Off
*  Target level: 75.0 dB
* Note: ; 
* Measurement: DUNU Kima 2 R
* Smoothing: 1/12 octave
* Frequency Step: 96 ppo
* Start Frequency: 0.36621094 Hz
*
* Freq(Hz) SPL(dB) Phase(degrees)
0.366211 42.812 12.9787
0.368865 42.831 13.0196
0.371538 42.858 13.0806
0.374230 42.891 13.1565
0.376942 42.929 13.2430
0.379673 42.970 13.3369
0.382424 43.012 13.4361
0.385196 43.055 13.5393
0.387987 43.099 13.6458
0.390798 43.144 13.7552
0.393630 43.189 13.8671
0.396483 43.234 13.9816
0.399356 43.280 14.0986
0.402250 43.326 14.2179
0.405165 43.373 14.3396
0.408101 43.420 14.4636
0.411058 43.467 14.5899
0.414037 43.514 14.7185
0.417037 43.562 14.8494
0.420059 43.610 14.9826
0.423103 43.659 15.1180
0.426169 43.708 15.2555
0.429257 43.757 15.3953
0.432368 43.807 15.5371
0.435501 43.856 15.6811
0.438656 43.907 15.8271
0.441835 43.957 15.9752
0.445037 44.008 16.1252
0.448262 44.060 16.2772
0.451510 44.112 16.4311
0.454782 44.164 16.5868
0.458077 44.216 16.7443
0.461397 44.269 16.9035
0.464740 44.323 17.0645
0.468108 44.376 17.2270
0.471500 44.430 17.3911
0.474917 44.485 17.5566
0.478358 44.540 17.7236
0.481825 44.595 17.8920
0.485316 44.651 18.0616
0.488833 44.707 18.2324
0.492375 44.763 18.4043
0.495943 44.820 18.5772
0.499537 44.877 18.7511
0.503157 44.935 18.9259
0.506803 44.993 19.1013
0.510475 45.052 19.2775
0.514175 45.111 19.4542
0.517900 45.170 19.6314
0.521653 45.230 19.8089
0.525434 45.290 19.9867
0.529241 45.351 20.1646
0.533076 45.412 20.3426
0.536939 45.474 20.5204
0.540830 45.536 20.6980
0.544749 45.598 20.8754
0.548696 45.661 21.0522
0.552673 45.725 21.2285
0.556677 45.788 21.4041
0.560711 45.853 21.5788
0.564774 45.918 21.7526
0.568867 45.983 21.9253
0.572989 46.049 22.0968
0.577141 46.115 22.2668
0.581324 46.182 22.4354
0.585536 46.249 22.6024
0.589779 46.316 22.7675
0.594053 46.384 22.9308
0.598358 46.453 23.0919
0.602694 46.522 23.2509
0.607061 46.592 23.4075
0.611460 46.662 23.5617
0.615891 46.733 23.7132
0.620354 46.804 23.8619
0.624849 46.876 24.0078
0.629377 46.948 24.1506
0.633938 47.021 24.2902
0.638532 47.094 24.4265
0.643159 47.168 24.5593
0.647819 47.242 24.6885
0.652514 47.317 24.8140
0.657242 47.392 24.9357
0.662005 47.468 25.0534
0.666802 47.545 25.1669
0.671634 47.622 25.2763
0.676501 47.699 25.3813
0.681403 47.778 25.4818
0.686341 47.856 25.5778
0.691314 47.936 25.6691
0.696324 48.016 25.7557
0.701370 48.096 25.8376
0.706452 48.178 25.9146
0.711571 48.260 25.9871
0.716728 48.344 26.0552
0.721921 48.428 26.1193
0.727153 48.515 26.1803
0.732422 48.604 26.2389
0.737729 48.694 26.2965
0.743075 48.788 26.3540
0.748460 48.883 26.4122
0.753883 48.980 26.4718
0.759346 49.078 26.5328
0.764849 49.179 26.5954
0.770391 49.281 26.6593
0.775974 49.384 26.7245
0.781597 49.488 26.7905
0.787261 49.594 26.8572
0.792966 49.702 26.9242
0.798712 49.810 26.9913
0.804500 49.921 27.0581
0.810329 50.032 27.1242
0.816201 50.145 27.1895
0.822116 50.259 27.2537
0.828073 50.374 27.3163
0.834074 50.491 27.3772
0.840118 50.608 27.4360
0.846206 50.728 27.4926
0.852338 50.848 27.5465
0.858514 50.969 27.5975
0.864735 51.092 27.6454
0.871001 51.216 27.6899
0.877313 51.341 27.7307
0.883670 51.467 27.7676
0.890074 51.594 27.8004
0.896524 51.722 27.8287
0.903020 51.851 27.8524
0.909564 51.982 27.8712
0.916155 52.113 27.8849
0.922794 52.245 27.8933
0.929481 52.378 27.8962
0.936216 52.512 27.8932
0.943000 52.646 27.8844
0.949834 52.782 27.8693
0.956717 52.918 27.8479
0.963649 53.055 27.8199
0.970632 53.192 27.7852
0.977666 53.330 27.7436
0.984750 53.468 27.6948
0.991886 53.607 27.6388
0.999074 53.746 27.5753
1.006314 53.886 27.5043
1.013606 54.026 27.4254
1.020951 54.166 27.3387
1.028349 54.306 27.2439
1.035801 54.447 27.1409
1.043307 54.587 27.0296
1.050867 54.727 26.9101
1.058482 54.867 26.7822
1.066152 55.007 26.6460
1.073878 55.147 26.5020
1.081660 55.286 26.3505
1.089498 55.426 26.1924
1.097393 55.565 26.0288
1.105345 55.704 25.8612
1.113355 55.843 25.6910
1.121423 55.983 25.5192
1.129549 56.123 25.3466
1.137734 56.263 25.1737
1.145979 56.403 25.0006
1.154283 56.544 24.8273
1.162647 56.685 24.6536
1.171072 56.827 24.4794
1.179558 56.969 24.3045
1.188106 57.111 24.1286
1.196715 57.254 23.9514
1.205387 57.397 23.7727
1.214122 57.541 23.5923
1.222920 57.684 23.4098
1.231782 57.828 23.2251
1.240708 57.973 23.0379
1.249699 58.117 22.8480
1.258754 58.262 22.6551
1.267876 58.408 22.4589
1.277063 58.553 22.2593
1.286318 58.699 22.0560
1.295639 58.845 21.8487
1.305027 58.991 21.6373
1.314484 59.138 21.4214
1.324009 59.285 21.2010
1.333604 59.431 20.9757
1.343268 59.579 20.7453
1.353002 59.726 20.5095
1.362806 59.873 20.2683
1.372681 60.021 20.0213
1.382628 60.169 19.7684
1.392647 60.316 19.5094
1.402739 60.464 19.2441
1.412904 60.612 18.9724
1.423142 60.760 18.6943
1.433455 60.908 18.4099
1.443843 61.056 18.1197
1.454305 61.204 17.8243
1.464844 61.352 17.5246
1.475459 61.500 17.2216
1.486150 61.648 16.9166
1.496920 61.795 16.6103
1.507767 61.942 16.3033
1.518693 62.090 15.9958
1.529698 62.237 15.6878
1.540783 62.383 15.3793
1.551948 62.530 15.0700
1.563194 62.676 14.7596
1.574521 62.822 14.4479
1.585931 62.968 14.1346
1.597423 63.114 13.8192
1.608999 63.260 13.5016
1.620658 63.405 13.1813
1.632402 63.551 12.8581
1.644232 63.696 12.5316
1.656146 63.841 12.2015
1.668147 63.986 11.8674
1.680235 64.130 11.5291
1.692411 64.275 11.1862
1.704675 64.419 10.8383
1.717028 64.564 10.4852
1.729470 64.708 10.1266
1.742003 64.853 9.7620
1.754626 64.997 9.3913
1.767341 65.141 9.0141
1.780147 65.285 8.6303
1.793047 65.430 8.2399
1.806040 65.574 7.8428
1.819128 65.718 7.4393
1.832310 65.861 7.0301
1.845587 66.005 6.6156
1.858961 66.148 6.1968
1.872432 66.291 5.7742
1.886001 66.433 5.3484
1.899667 66.575 4.9198
1.913433 66.716 4.4886
1.927299 66.857 4.0551
1.941265 66.998 3.6192
1.955332 67.138 3.1812
1.969501 67.277 2.7410
1.983773 67.416 2.2986
1.998148 67.555 1.8541
2.012627 67.693 1.4072
2.027212 67.831 0.9581
2.041902 67.968 0.5066
2.056698 68.106 0.0525
2.071602 68.242 -0.4042
2.086614 68.379 -0.8638
2.101734 68.515 -1.3263
2.116964 68.651 -1.7920
2.132304 68.787 -2.2611
2.147756 68.923 -2.7337
2.163320 69.058 -3.2101
2.178996 69.193 -3.6904
2.194786 69.328 -4.1747
2.210690 69.462 -4.6630
2.226710 69.596 -5.1552
2.242845 69.729 -5.6511
2.259098 69.862 -6.1503
2.275468 69.994 -6.6527
2.291957 70.125 -7.1580
2.308566 70.256 -7.6657
2.325295 70.385 -8.1758
2.342145 70.515 -8.6878
2.359117 70.643 -9.2017
2.376212 70.771 -9.7172
2.393431 70.899 -10.2342
2.410775 71.026 -10.7525
2.428244 71.153 -11.2721
2.445840 71.279 -11.7928
2.463564 71.404 -12.3148
2.481416 71.530 -12.8381
2.499397 71.654 -13.3626
2.517509 71.779 -13.8887
2.535752 71.903 -14.4167
2.554127 72.026 -14.9467
2.572635 72.149 -15.4794
2.591277 72.272 -16.0149
2.610055 72.393 -16.5536
2.628968 72.514 -17.0953
2.648019 72.634 -17.6399
2.667208 72.754 -18.1871
2.686535 72.872 -18.7366
2.706003 72.990 -19.2880
2.725612 73.107 -19.8407
2.745363 73.223 -20.3945
2.765257 73.339 -20.9490
2.785295 73.454 -21.5038
2.805478 73.569 -22.0586
2.825808 73.683 -22.6133
2.846285 73.796 -23.1675
2.866910 73.909 -23.7215
2.887685 74.022 -24.2751
2.908611 74.134 -24.8288
2.929688 74.245 -25.3830
2.950917 74.356 -25.9383
2.972301 74.466 -26.4951
2.993839 74.575 -27.0538
3.015534 74.684 -27.6143
3.037386 74.791 -28.1765
3.059396 74.898 -28.7400
3.081565 75.004 -29.3045
3.103896 75.110 -29.8693
3.126388 75.214 -30.4342
3.149043 75.318 -30.9985
3.171862 75.422 -31.5619
3.194847 75.525 -32.1241
3.217998 75.627 -32.6847
3.241317 75.729 -33.2436
3.264805 75.830 -33.8010
3.288463 75.931 -34.3572
3.312293 76.031 -34.9126
3.336295 76.131 -35.4679
3.360471 76.230 -36.0233
3.384822 76.328 -36.5790
3.409350 76.425 -37.1350
3.434056 76.522 -37.6912
3.458940 76.618 -38.2470
3.484005 76.713 -38.8023
3.509252 76.808 -39.3565
3.534681 76.903 -39.9094
3.560295 76.996 -40.4604
3.586094 77.090 -41.0095
3.612081 77.183 -41.5564
3.638255 77.275 -42.1012
3.664620 77.367 -42.6442
3.691175 77.459 -43.1858
3.717923 77.550 -43.7262
3.744864 77.641 -44.2658
3.772001 77.731 -44.8047
3.799335 77.820 -45.3428
3.826866 77.909 -45.8800
3.854597 77.997 -46.4160
3.882529 78.085 -46.9508
3.910664 78.173 -47.4840
3.939002 78.260 -48.0154
3.967546 78.347 -48.5449
3.996296 78.433 -49.0724
4.025255 78.520 -49.5982
4.054423 78.606 -50.1223
4.083804 78.691 -50.6450
4.113396 78.776 -51.1665
4.143204 78.861 -51.6870
4.173227 78.946 -52.2066
4.203468 79.030 -52.7251
4.233928 79.113 -53.2426
4.264609 79.197 -53.7591
4.295512 79.280 -54.2744
4.326639 79.363 -54.7887
4.357992 79.446 -55.3019
4.389572 79.528 -55.8140
4.421380 79.610 -56.3253
4.453419 79.692 -56.8359
4.485691 79.774 -57.3459
4.518196 79.855 -57.8553
4.550936 79.936 -58.3644
4.583914 80.017 -58.8729
4.617131 80.097 -59.3811
4.650589 80.177 -59.8889
4.684289 80.257 -60.3964
4.718233 80.337 -60.9037
4.752424 80.416 -61.4108
4.786862 80.495 -61.9179
4.821549 80.574 -62.4251
4.856488 80.652 -62.9324
4.891680 80.730 -63.4400
4.927127 80.808 -63.9478
4.962831 80.885 -64.4557
4.998794 80.962 -64.9636
5.035017 81.039 -65.4717
5.071503 81.115 -65.9800
5.108253 81.191 -66.4884
5.145270 81.266 -66.9972
5.182555 81.341 -67.5066
5.220110 81.416 -68.0164
5.257937 81.490 -68.5268
5.296038 81.563 -69.0376
5.334415 81.636 -69.5486
5.373071 81.709 -70.0597
5.412006 81.781 -70.5707
5.451224 81.853 -71.0817
5.490725 81.924 -71.5926
5.530514 81.994 -72.1037
5.570590 82.064 -72.6149
5.610957 82.134 -73.1264
5.651616 82.202 -73.6379
5.692570 82.271 -74.1493
5.733821 82.338 -74.6603
5.775370 82.405 -75.1706
5.817221 82.472 -75.6803
5.859375 82.538 -76.1892
5.901834 82.603 -76.6974
5.944602 82.668 -77.2051
5.987679 82.732 -77.7121
6.031068 82.795 -78.2185
6.074771 82.858 -78.7239
6.118792 82.920 -79.2282
6.163131 82.982 -79.7312
6.207792 83.043 -80.2328
6.252776 83.104 -80.7330
6.298086 83.164 -81.2319
6.343725 83.223 -81.7296
6.389694 83.282 -82.2260
6.435996 83.341 -82.7210
6.482634 83.399 -83.2145
6.529610 83.456 -83.7064
6.576926 83.513 -84.1967
6.624585 83.569 -84.6854
6.672590 83.625 -85.1726
6.720942 83.681 -85.6583
6.769645 83.736 -86.1426
6.818700 83.790 -86.6254
6.868111 83.844 -87.1068
6.917881 83.898 -87.5868
6.968010 83.951 -88.0654
7.018504 84.004 -88.5427
7.069362 84.056 -89.0187
7.120590 84.108 -89.4935
7.172189 84.159 -89.9671
7.224161 84.211 -90.4396
7.276511 84.261 -90.9109
7.329239 84.311 -91.3812
7.382350 84.361 -91.8504
7.435845 84.410 -92.3186
7.489729 84.459 -92.7859
7.544002 84.507 -93.2521
7.598669 84.555 -93.7172
7.653732 84.603 -94.1813
7.709194 84.649 -94.6442
7.765058 84.696 -95.1061
7.821327 84.742 -95.5668
7.878004 84.787 -96.0264
7.935091 84.832 -96.4846
7.992592 84.876 -96.9414
8.050510 84.920 -97.3967
8.108847 84.963 -97.8504
8.167607 85.006 -98.3025
8.226793 85.048 -98.7529
8.286408 85.090 -99.2014
8.346454 85.131 -99.6481
8.406936 85.172 -100.0927
8.467856 85.212 -100.5352
8.529218 85.252 -100.9756
8.591024 85.292 -101.4138
8.653278 85.331 -101.8500
8.715983 85.370 -102.2840
8.779143 85.408 -102.7159
8.842760 85.446 -103.1457
8.906839 85.484 -103.5736
8.971381 85.522 -103.9995
9.036392 85.559 -104.4238
9.101873 85.596 -104.8465
9.167829 85.633 -105.2678
9.234263 85.670 -105.6880
9.301178 85.707 -106.1071
9.368578 85.743 -106.5256
9.436467 85.780 -106.9435
9.504847 85.816 -107.3612
9.573723 85.852 -107.7788
9.643099 85.887 -108.1966
9.712976 85.923 -108.6147
9.783361 85.958 -109.0332
9.854255 85.993 -109.4523
9.925663 86.027 -109.8720
9.997588 86.061 -110.2924
10.070035 86.094 -110.7133
10.143007 86.127 -111.1346
10.216507 86.159 -111.5560
10.290540 86.190 -111.9774
10.365109 86.221 -112.3983
10.440219 86.251 -112.8184
10.515873 86.280 -113.2372
10.592076 86.308 -113.6540
10.668830 86.336 -114.0682
10.746141 86.362 -114.4793
10.824012 86.388 -114.8867
10.902447 86.413 -115.2897
10.981451 86.437 -115.6875
11.061027 86.461 -116.0796
11.141180 86.485 -116.4655
11.221913 86.508 -116.8448
11.303232 86.530 -117.2171
11.385140 86.553 -117.5823
11.467641 86.576 -117.9402
11.550741 86.599 -118.2911
11.634442 86.623 -118.6355
11.718750 86.647 -118.9737
11.803669 86.672 -119.3066
11.889203 86.698 -119.6351
11.975357 86.725 -119.9605
12.062136 86.753 -120.2841
12.149543 86.782 -120.6073
12.237583 86.813 -120.9318
12.326262 86.845 -121.2590
12.415583 86.878 -121.5908
12.505552 86.912 -121.9286
12.596172 86.946 -122.2738
12.687449 86.981 -122.6276
12.779387 87.017 -122.9910
12.871992 87.052 -123.3646
12.965268 87.088 -123.7488
13.059220 87.122 -124.1433
13.153852 87.155 -124.5476
13.249170 87.187 -124.9607
13.345179 87.218 -125.3814
13.441884 87.246 -125.8078
13.539289 87.273 -126.2378
13.637401 87.297 -126.6689
13.736223 87.319 -127.0988
13.835761 87.338 -127.5246
13.936021 87.355 -127.9437
14.037007 87.371 -128.3537
14.138725 87.385 -128.7523
14.241180 87.397 -129.1378
14.344377 87.409 -129.5087
14.448323 87.420 -129.8645
14.553021 87.431 -130.2052
14.658478 87.443 -130.5317
14.764700 87.456 -130.8453
14.871691 87.470 -131.1483
14.979457 87.487 -131.4437
15.088005 87.505 -131.7346
15.197339 87.525 -132.0245
15.307465 87.547 -132.3169
15.418389 87.571 -132.6150
15.530117 87.596 -132.9214
15.642655 87.621 -133.2383
15.756008 87.647 -133.5667
15.870182 87.672 -133.9066
15.985184 87.696 -134.2569
16.101019 87.718 -134.6156
16.217694 87.738 -134.9796
16.335214 87.755 -135.3451
16.453586 87.770 -135.7079
16.572815 87.783 -136.0635
16.692909 87.793 -136.4078
16.813872 87.802 -136.7372
16.935713 87.810 -137.0490
17.058436 87.818 -137.3419
17.182048 87.826 -137.6163
17.306556 87.836 -137.8738
17.431967 87.849 -138.1179
17.558286 87.864 -138.3535
17.685521 87.882 -138.5864
17.813677 87.904 -138.8228
17.942762 87.928 -139.0691
18.072783 87.955 -139.3308
18.203746 87.983 -139.6120
18.335658 88.011 -139.9153
18.468526 88.038 -140.2409
18.602356 88.064 -140.5870
18.737156 88.086 -140.9497
18.872934 88.104 -141.3234
19.009695 88.118 -141.7010
19.147447 88.128 -142.0750
19.286197 88.134 -142.4377
19.425953 88.136 -142.7825
19.566721 88.135 -143.1039
19.708510 88.133 -143.3987
19.851326 88.131 -143.6659
19.995177 88.130 -143.9069
20.140070 88.131 -144.1254
20.286013 88.135 -144.3268
20.433014 88.142 -144.5176
20.581080 88.152 -144.7048
20.730219 88.166 -144.8947
20.880439 88.182 -145.0923
21.031747 88.200 -145.3011
21.184152 88.218 -145.5227
21.337661 88.237 -145.7570
21.492282 88.255 -146.0026
21.648024 88.273 -146.2572
21.804895 88.290 -146.5185
21.962902 88.305 -146.7845
22.122054 88.320 -147.0538
22.282360 88.335 -147.3263
22.443827 88.348 -147.6022
22.606464 88.361 -147.8822
22.770280 88.373 -148.1669
22.935283 88.384 -148.4561
23.101481 88.393 -148.7482
23.268884 88.399 -149.0403
23.437500 88.404 -149.3282
23.607338 88.406 -149.6069
23.778406 88.405 -149.8712
23.950714 88.404 -150.1169
24.124271 88.402 -150.3416
24.299086 88.402 -150.5456
24.475167 88.403 -150.7319
24.652524 88.407 -150.9063
24.831166 88.415 -151.0763
25.011103 88.427 -151.2499
25.192344 88.441 -151.4346
25.374898 88.457 -151.6357
25.558775 88.474 -151.8552
25.743984 88.490 -152.0925
25.930536 88.505 -152.3439
26.118439 88.518 -152.6040
26.307704 88.529 -152.8676
26.498341 88.539 -153.1301
26.690359 88.548 -153.3898
26.883768 88.557 -153.6473
27.078579 88.566 -153.9056
27.274801 88.575 -154.1691
27.472446 88.584 -154.4415
27.671522 88.591 -154.7242
27.872042 88.596 -155.0152
28.074014 88.597 -155.3082
28.277450 88.594 -155.5935
28.482360 88.587 -155.8593
28.688755 88.576 -156.0945
28.896645 88.565 -156.2915
29.106042 88.555 -156.4481
29.316957 88.549 -156.5697
29.529400 88.549 -156.6686
29.743382 88.556 -156.7624
29.958915 88.570 -156.8704
30.176009 88.589 -157.0099
30.394677 88.610 -157.1921
30.614929 88.631 -157.4200
30.836778 88.648 -157.6874
31.060234 88.659 -157.9805
31.285309 88.662 -158.2809
31.512015 88.658 -158.5692
31.740364 88.650 -158.8290
31.970368 88.638 -159.0500
32.202039 88.627 -159.2300
32.435388 88.618 -159.3747
32.670428 88.613 -159.4960
32.907171 88.614 -159.6090
33.145630 88.620 -159.7280
33.385817 88.630 -159.8636
33.627745 88.641 -160.0211
33.871425 88.652 -160.2002
34.116871 88.662 -160.3962
34.364096 88.671 -160.6027
34.613113 88.678 -160.8134
34.863934 88.684 -161.0242
35.116572 88.690 -161.2335
35.371041 88.696 -161.4419
35.627354 88.701 -161.6510
35.885525 88.707 -161.8618
36.145566 88.712 -162.0743
36.407492 88.716 -162.2866
36.671316 88.719 -162.4963
36.937051 88.722 -162.7010
37.204712 88.724 -162.8993
37.474313 88.726 -163.0917
37.745867 88.729 -163.2796
38.019389 88.732 -163.4647
38.294893 88.734 -163.6484
38.572394 88.737 -163.8309
38.851905 88.739 -164.0113
39.133442 88.740 -164.1891
39.417019 88.741 -164.3640
39.702651 88.742 -164.5372
39.990353 88.743 -164.7105
40.280140 88.743 -164.8856
40.572026 88.742 -165.0631
40.866028 88.740 -165.2420
41.162160 88.737 -165.4195
41.460438 88.732 -165.5926
41.760877 88.726 -165.7586
42.063494 88.720 -165.9161
42.368303 88.714 -166.0651
42.675322 88.708 -166.2065
42.984565 88.704 -166.3414
43.296048 88.701 -166.4715
43.609789 88.699 -166.5991
43.925804 88.700 -166.7276
44.244108 88.703 -166.8607
44.564719 88.709 -167.0020
44.887654 88.716 -167.1539
45.212928 88.724 -167.3172
45.540560 88.734 -167.4925
45.870565 88.745 -167.6814
46.202962 88.757 -167.8873
46.537768 88.768 -168.1141
46.875000 88.778 -168.3630
47.214676 88.784 -168.6288
47.556813 88.784 -168.8983
47.901429 88.779 -169.1529
48.248542 88.768 -169.3748
48.598171 88.756 -169.5535
48.950334 88.745 -169.6903
49.305048 88.737 -169.7969
49.662333 88.733 -169.8896
50.022206 88.732 -169.9823
50.384688 88.733 -170.0825
50.749796 88.734 -170.1904
51.117550 88.735 -170.3030
51.487969 88.736 -170.4173
51.861072 88.736 -170.5331
52.236879 88.737 -170.6520
52.615409 88.738 -170.7762
52.996681 88.739 -170.9071
53.380717 88.739 -171.0445
53.767536 88.738 -171.1869
54.157158 88.737 -171.3316
54.549603 88.735 -171.4755
54.944892 88.733 -171.6163
55.343045 88.730 -171.7534
55.744084 88.729 -171.8889
56.148028 88.728 -172.0259
56.554900 88.727 -172.1670
56.964720 88.726 -172.3122
57.377510 88.724 -172.4592
57.793291 88.721 -172.6044
58.212085 88.718 -172.7455
58.633914 88.714 -172.8822
59.058799 88.711 -173.0168
59.486764 88.709 -173.1524
59.917829 88.708 -173.2930
60.352019 88.706 -173.4420
60.789354 88.705 -173.6014
61.229859 88.702 -173.7701
61.673556 88.697 -173.9429
62.120468 88.691 -174.1118
62.570618 88.683 -174.2683
63.024031 88.676 -174.4081
63.480729 88.671 -174.5336
63.940736 88.668 -174.6537
64.404077 88.667 -174.7794
64.870776 88.667 -174.9169
65.340856 88.665 -175.0646
65.814343 88.661 -175.2136
66.291261 88.654 -175.3528
66.771635 88.645 -175.4748
67.255489 88.636 -175.5789
67.742850 88.627 -175.6702
68.233743 88.618 -175.7565
68.728193 88.611 -175.8456
69.226226 88.604 -175.9434
69.727867 88.598 -176.0546
70.233144 88.591 -176.1834
70.742083 88.584 -176.3341
71.254709 88.575 -176.5090
71.771050 88.563 -176.7052
72.291132 88.547 -176.9118
72.814984 88.526 -177.1104
73.342631 88.501 -177.2786
73.874102 88.474 -177.3974
74.409424 88.451 -177.4599
74.948626 88.435 -177.4769
75.491734 88.429 -177.4734
76.038779 88.431 -177.4780
76.589787 88.440 -177.5108
77.144788 88.453 -177.5805
77.703811 88.466 -177.6892
78.266885 88.479 -177.8375
78.834039 88.488 -178.0231
79.405303 88.491 -178.2384
79.980706 88.487 -178.4692
80.560280 88.476 -178.6986
81.144053 88.458 -178.9111
81.732056 88.437 -179.0974
82.324320 88.413 -179.2555
82.920876 88.390 -179.3893
83.521755 88.367 -179.5052
84.126988 88.347 -179.6093
84.736607 88.328 -179.7068
85.350643 88.310 -179.8018
85.969129 88.293 -179.8949
86.592097 88.275 -179.9837
87.219579 88.255 179.9359
87.851608 88.235 179.8685
88.488217 88.212 179.8199
89.129439 88.188 179.7965
89.775308 88.164 179.8020
90.425856 88.142 179.8354
91.081119 88.121 179.8930
91.741131 88.104 179.9705
92.405925 88.091 -179.9364
