* Measurement data measured by REW V5.31.3
* Source: Headset (2- CX31993 HIFI AUDIO), MICROPHONE (Master Volume), R, volume: 0.300
* Format: 256k Log Swept Sine, 1 sweep at -11.9 dBFS with no timing reference
* Dated: 09 27, 25 12:14:57 PM
* REW Settings:
*  C-weighting compensation: Off
*  Target level: 75.0 dB
* Note: ; 
* Measurement: Elysian Pilgrim R
* Smoothing: 1/12 octave
* Frequency Step: 96 ppo
* Start Frequency: 0.36621094 Hz
*
* Freq(Hz) SPL(dB) Phase(degrees)
0.366211 43.212 -24.5179
0.368865 43.215 -24.5767
0.371538 43.220 -24.6645
0.374230 43.225 -24.7740
0.376942 43.232 -24.8992
0.379673 43.239 -25.0356
0.382424 43.247 -25.1802
0.385196 43.254 -25.3313
0.387987 43.262 -25.4877
0.390798 43.270 -25.6488
0.393630 43.278 -25.8145
0.396483 43.286 -25.9844
0.399356 43.294 -26.1587
0.402250 43.302 -26.3371
0.405165 43.310 -26.5199
0.408101 43.318 -26.7068
0.411058 43.326 -26.8981
0.414037 43.335 -27.0937
0.417037 43.343 -27.2936
0.420059 43.352 -27.4978
0.423103 43.360 -27.7064
0.426169 43.369 -27.9194
0.429257 43.377 -28.1368
0.432368 43.386 -28.3586
0.435501 43.395 -28.5848
0.438656 43.404 -28.8155
0.441835 43.412 -29.0506
0.445037 43.421 -29.2902
0.448262 43.430 -29.5343
0.451510 43.440 -29.7829
0.454782 43.449 -30.0360
0.458077 43.458 -30.2936
0.461397 43.467 -30.5558
0.464740 43.477 -30.8225
0.468108 43.486 -31.0938
0.471500 43.495 -31.3696
0.474917 43.505 -31.6501
0.478358 43.515 -31.9351
0.481825 43.524 -32.2247
0.485316 43.534 -32.5189
0.488833 43.544 -32.8177
0.492375 43.554 -33.1212
0.495943 43.564 -33.4293
0.499537 43.574 -33.7420
0.503157 43.584 -34.0594
0.506803 43.594 -34.3815
0.510475 43.604 -34.7083
0.514175 43.615 -35.0398
0.517900 43.625 -35.3760
0.521653 43.636 -35.7170
0.525434 43.646 -36.0627
0.529241 43.657 -36.4133
0.533076 43.668 -36.7686
0.536939 43.679 -37.1288
0.540830 43.689 -37.4938
0.544749 43.700 -37.8638
0.548696 43.711 -38.2387
0.552673 43.723 -38.6185
0.556677 43.734 -39.0034
0.560711 43.745 -39.3934
0.564774 43.756 -39.7885
0.568867 43.768 -40.1887
0.572989 43.779 -40.5942
0.577141 43.791 -41.0051
0.581324 43.803 -41.4212
0.585536 43.814 -41.8429
0.589779 43.826 -42.2700
0.594053 43.838 -42.7028
0.598358 43.850 -43.1414
0.602694 43.862 -43.5857
0.607061 43.875 -44.0360
0.611460 43.887 -44.4924
0.615891 43.899 -44.9550
0.620354 43.912 -45.4239
0.624849 43.924 -45.8993
0.629377 43.937 -46.3814
0.633938 43.950 -46.8703
0.638532 43.963 -47.3662
0.643159 43.976 -47.8693
0.647819 43.989 -48.3799
0.652514 44.002 -48.8981
0.657242 44.015 -49.4242
0.662005 44.028 -49.9585
0.666802 44.042 -50.5012
0.671634 44.055 -51.0527
0.676501 44.069 -51.6132
0.681403 44.083 -52.1831
0.686341 44.097 -52.7627
0.691314 44.111 -53.3524
0.696324 44.125 -53.9527
0.701370 44.139 -54.5640
0.706452 44.154 -55.1868
0.711571 44.169 -55.8216
0.716728 44.185 -56.4691
0.721921 44.201 -57.1298
0.727153 44.220 -57.8046
0.732422 44.240 -58.4941
0.737729 44.262 -59.1990
0.743075 44.285 -59.9199
0.748460 44.311 -60.6568
0.753883 44.337 -61.4100
0.759346 44.364 -62.1792
0.764849 44.392 -62.9641
0.770391 44.420 -63.7644
0.775974 44.449 -64.5797
0.781597 44.478 -65.4095
0.787261 44.508 -66.2533
0.792966 44.538 -67.1108
0.798712 44.568 -67.9812
0.804500 44.599 -68.8643
0.810329 44.630 -69.7594
0.816201 44.662 -70.6661
0.822116 44.695 -71.5839
0.828073 44.727 -72.5124
0.834074 44.761 -73.4509
0.840118 44.795 -74.3992
0.846206 44.830 -75.3568
0.852338 44.866 -76.3232
0.858514 44.902 -77.2981
0.864735 44.939 -78.2812
0.871001 44.977 -79.2722
0.877313 45.015 -80.2707
0.883670 45.055 -81.2766
0.890074 45.095 -82.2896
0.896524 45.137 -83.3095
0.903020 45.179 -84.3364
0.909564 45.222 -85.3701
0.916155 45.267 -86.4107
0.922794 45.313 -87.4581
0.929481 45.359 -88.5124
0.936216 45.408 -89.5739
0.943000 45.457 -90.6426
0.949834 45.508 -91.7189
0.956717 45.560 -92.8031
0.963649 45.614 -93.8955
0.970632 45.669 -94.9966
0.977666 45.726 -96.1069
0.984750 45.784 -97.2268
0.991886 45.844 -98.3570
0.999074 45.906 -99.4981
1.006314 45.970 -100.6508
1.013606 46.036 -101.8160
1.020951 46.103 -102.9943
1.028349 46.173 -104.1868
1.035801 46.245 -105.3942
1.043307 46.319 -106.6175
1.050867 46.396 -107.8578
1.058482 46.475 -109.1160
1.066152 46.557 -110.3929
1.073878 46.641 -111.6895
1.081660 46.728 -113.0062
1.089498 46.818 -114.3430
1.097393 46.911 -115.6994
1.105345 47.007 -117.0741
1.113355 47.106 -118.4650
1.121423 47.209 -119.8698
1.129549 47.315 -121.2857
1.137734 47.424 -122.7101
1.145979 47.537 -124.1405
1.154283 47.653 -125.5746
1.162647 47.773 -127.0102
1.171072 47.896 -128.4454
1.179558 48.022 -129.8782
1.188106 48.152 -131.3072
1.196715 48.284 -132.7309
1.205387 48.420 -134.1481
1.214122 48.559 -135.5578
1.222920 48.701 -136.9590
1.231782 48.845 -138.3512
1.240708 48.993 -139.7338
1.249699 49.143 -141.1066
1.258754 49.295 -142.4693
1.267876 49.450 -143.8219
1.277063 49.608 -145.1647
1.286318 49.768 -146.4978
1.295639 49.930 -147.8216
1.305027 50.094 -149.1366
1.314484 50.260 -150.4435
1.324009 50.428 -151.7428
1.333604 50.598 -153.0354
1.343268 50.769 -154.3221
1.353002 50.941 -155.6038
1.362806 51.115 -156.8814
1.372681 51.290 -158.1559
1.382628 51.465 -159.4283
1.392647 51.642 -160.6996
1.402739 51.819 -161.9707
1.412904 51.996 -163.2424
1.423142 52.174 -164.5153
1.433455 52.352 -165.7896
1.443843 52.530 -167.0647
1.454305 52.709 -168.3393
1.464844 52.889 -169.6113
1.475459 53.070 -170.8776
1.486150 53.252 -172.1348
1.496920 53.436 -173.3800
1.507767 53.623 -174.6112
1.518693 53.811 -175.8269
1.529698 54.001 -177.0266
1.540783 54.194 -178.2100
1.551948 54.389 -179.3776
1.563194 54.585 179.4700
1.574521 54.784 178.3321
1.585931 54.984 177.2076
1.597423 55.187 176.0953
1.608999 55.390 174.9941
1.620658 55.595 173.9026
1.632402 55.802 172.8193
1.644232 56.010 171.7430
1.656146 56.219 170.6721
1.668147 56.428 169.6050
1.680235 56.639 168.5403
1.692411 56.850 167.4765
1.704675 57.062 166.4120
1.717028 57.275 165.3452
1.729470 57.487 164.2748
1.742003 57.699 163.1993
1.754626 57.912 162.1173
1.767341 58.124 161.0278
1.780147 58.335 159.9299
1.793047 58.547 158.8231
1.806040 58.757 157.7079
1.819128 58.967 156.5854
1.832310 59.176 155.4578
1.845587 59.385 154.3282
1.858961 59.594 153.1999
1.872432 59.803 152.0757
1.886001 60.012 150.9577
1.899667 60.220 149.8475
1.913433 60.429 148.7458
1.927299 60.638 147.6531
1.941265 60.846 146.5693
1.955332 61.055 145.4940
1.969501 61.264 144.4266
1.983773 61.473 143.3665
1.998148 61.681 142.3128
2.012627 61.890 141.2645
2.027212 62.099 140.2204
2.041902 62.307 139.1795
2.056698 62.516 138.1404
2.071602 62.724 137.1020
2.086614 62.933 136.0628
2.101734 63.141 135.0216
2.116964 63.349 133.9772
2.132304 63.557 132.9283
2.147756 63.765 131.8741
2.163320 63.972 130.8142
2.178996 64.179 129.7487
2.194786 64.386 128.6785
2.210690 64.593 127.6052
2.226710 64.798 126.5308
2.242845 65.004 125.4572
2.259098 65.209 124.3862
2.275468 65.413 123.3188
2.291957 65.617 122.2559
2.308566 65.820 121.1975
2.325295 66.023 120.1439
2.342145 66.225 119.0948
2.359117 66.427 118.0496
2.376212 66.628 117.0078
2.393431 66.829 115.9685
2.410775 67.029 114.9311
2.428244 67.229 113.8943
2.445840 67.429 112.8571
2.463564 67.628 111.8186
2.481416 67.827 110.7774
2.499397 68.025 109.7327
2.517509 68.224 108.6834
2.535752 68.422 107.6291
2.554127 68.619 106.5696
2.572635 68.816 105.5056
2.591277 69.012 104.4379
2.610055 69.208 103.3678
2.628968 69.403 102.2965
2.648019 69.597 101.2253
2.667208 69.791 100.1548
2.686535 69.983 99.0858
2.706003 70.175 98.0185
2.725612 70.366 96.9531
2.745363 70.557 95.8895
2.765257 70.747 94.8274
2.785295 70.936 93.7663
2.805478 71.124 92.7056
2.825808 71.313 91.6445
2.846285 71.500 90.5823
2.866910 71.687 89.5181
2.887685 71.874 88.4509
2.908611 72.060 87.3801
2.929688 72.245 86.3051
2.950917 72.430 85.2260
2.972301 72.613 84.1432
2.993839 72.796 83.0573
3.015534 72.978 81.9692
3.037386 73.159 80.8799
3.059396 73.339 79.7901
3.081565 73.519 78.7006
3.103896 73.697 77.6119
3.126388 73.875 76.5241
3.149043 74.051 75.4374
3.171862 74.227 74.3517
3.194847 74.403 73.2665
3.217998 74.577 72.1813
3.241317 74.751 71.0955
3.264805 74.924 70.0079
3.288463 75.097 68.9179
3.312293 75.268 67.8247
3.336295 75.439 66.7278
3.360471 75.608 65.6274
3.384822 75.777 64.5241
3.409350 75.944 63.4186
3.434056 76.111 62.3119
3.458940 76.276 61.2049
3.484005 76.441 60.0983
3.509252 76.604 58.9928
3.534681 76.767 57.8886
3.560295 76.929 56.7860
3.586094 77.090 55.6846
3.612081 77.250 54.5839
3.638255 77.409 53.4830
3.664620 77.567 52.3810
3.691175 77.724 51.2767
3.717923 77.881 50.1697
3.744864 78.036 49.0599
3.772001 78.190 47.9478
3.799335 78.342 46.8344
3.826866 78.494 45.7205
3.854597 78.645 44.6071
3.882529 78.794 43.4952
3.910664 78.943 42.3853
3.939002 79.091 41.2776
3.967546 79.237 40.1722
3.996296 79.383 39.0683
4.025255 79.528 37.9651
4.054423 79.672 36.8615
4.083804 79.814 35.7564
4.113396 79.956 34.6498
4.143204 80.096 33.5417
4.173227 80.235 32.4330
4.203468 80.373 31.3245
4.233928 80.510 30.2173
4.264609 80.646 29.1124
4.295512 80.781 28.0103
4.326639 80.915 26.9111
4.357992 81.048 25.8149
4.389572 81.180 24.7207
4.421380 81.310 23.6276
4.453419 81.440 22.5347
4.485691 81.569 21.4414
4.518196 81.696 20.3481
4.550936 81.823 19.2552
4.583914 81.948 18.1636
4.617131 82.072 17.0743
4.650589 82.196 15.9880
4.684289 82.318 14.9052
4.718233 82.440 13.8259
4.752424 82.560 12.7498
4.786862 82.680 11.6758
4.821549 82.798 10.6034
4.856488 82.915 9.5319
4.891680 83.032 8.4614
4.927127 83.147 7.3925
4.962831 83.261 6.3256
4.998794 83.375 5.2617
5.035017 83.487 4.2012
5.071503 83.599 3.1445
5.108253 83.710 2.0913
5.145270 83.820 1.0413
5.182555 83.929 -0.0065
5.220110 84.037 -1.0524
5.257937 84.144 -2.0964
5.296038 84.250 -3.1385
5.334415 84.355 -4.1781
5.373071 84.460 -5.2146
5.412006 84.564 -6.2476
5.451224 84.666 -7.2771
5.490725 84.769 -8.3032
5.530514 84.870 -9.3264
5.570590 84.970 -10.3473
5.610957 85.070 -11.3660
5.651616 85.169 -12.3826
5.692570 85.267 -13.3967
5.733821 85.364 -14.4081
5.775370 85.460 -15.4163
5.817221 85.556 -16.4213
5.859375 85.651 -17.4232
5.901834 85.745 -18.4225
5.944602 85.839 -19.4196
5.987679 85.931 -20.4146
6.031068 86.023 -21.4073
6.074771 86.114 -22.3977
6.118792 86.205 -23.3854
6.163131 86.294 -24.3701
6.207792 86.383 -25.3522
6.252776 86.471 -26.3315
6.298086 86.559 -27.3087
6.343725 86.645 -28.2839
6.389694 86.731 -29.2570
6.435996 86.816 -30.2278
6.482634 86.900 -31.1962
6.529610 86.984 -32.1618
6.576926 87.067 -33.1248
6.624585 87.149 -34.0852
6.672590 87.230 -35.0435
6.720942 87.310 -35.9997
6.769645 87.390 -36.9537
6.818700 87.469 -37.9053
6.868111 87.547 -38.8542
6.917881 87.624 -39.8005
6.968010 87.701 -40.7440
7.018504 87.776 -41.6849
7.069362 87.851 -42.6235
7.120590 87.925 -43.5597
7.172189 87.999 -44.4933
7.224161 88.071 -45.4241
7.276511 88.143 -46.3519
7.329239 88.214 -47.2769
7.382350 88.284 -48.1989
7.435845 88.353 -49.1183
7.489729 88.422 -50.0349
7.544002 88.490 -50.9487
7.598669 88.557 -51.8595
7.653732 88.623 -52.7672
7.709194 88.689 -53.6717
7.765058 88.754 -54.5732
7.821327 88.818 -55.4718
7.878004 88.881 -56.3676
7.935091 88.944 -57.2603
7.992592 89.006 -58.1498
8.050510 89.068 -59.0363
8.108847 89.128 -59.9197
8.167607 89.188 -60.8002
8.226793 89.248 -61.6779
8.286408 89.306 -62.5526
8.346454 89.364 -63.4243
8.406936 89.422 -64.2932
8.467856 89.478 -65.1592
8.529218 89.535 -66.0224
8.591024 89.590 -66.8829
8.653278 89.645 -67.7408
8.715983 89.699 -68.5960
8.779143 89.753 -69.4485
8.842760 89.806 -70.2983
8.906839 89.858 -71.1457
8.971381 89.910 -71.9905
9.036392 89.961 -72.8329
9.101873 90.012 -73.6727
9.167829 90.062 -74.5100
9.234263 90.111 -75.3448
9.301178 90.160 -76.1772
9.368578 90.208 -77.0073
9.436467 90.255 -77.8348
9.504847 90.302 -78.6598
9.573723 90.348 -79.4822
9.643099 90.394 -80.3022
9.712976 90.439 -81.1198
9.783361 90.483 -81.9347
9.854255 90.527 -82.7471
9.925663 90.570 -83.5568
9.997588 90.612 -84.3640
10.070035 90.654 -85.1685
10.143007 90.695 -85.9705
10.216507 90.736 -86.7697
10.290540 90.776 -87.5663
10.365109 90.816 -88.3602
10.440219 90.855 -89.1515
10.515873 90.894 -89.9402
10.592076 90.932 -90.7262
10.668830 90.969 -91.5096
10.746141 91.006 -92.2906
10.824012 91.043 -93.0690
10.902447 91.079 -93.8449
10.981451 91.115 -94.6183
11.061027 91.150 -95.3894
11.141180 91.184 -96.1582
11.221913 91.218 -96.9246
11.303232 91.252 -97.6888
11.385140 91.285 -98.4507
11.467641 91.318 -99.2104
11.550741 91.350 -99.9680
11.634442 91.382 -100.7235
11.718750 91.414 -101.4768
11.803669 91.445 -102.2280
11.889203 91.475 -102.9771
11.975357 91.505 -103.7241
12.062136 91.535 -104.4689
12.149543 91.564 -105.2116
12.237583 91.592 -105.9521
12.326262 91.620 -106.6904
12.415583 91.648 -107.4265
12.505552 91.675 -108.1604
12.596172 91.702 -108.8919
12.687449 91.728 -109.6211
12.779387 91.754 -110.3480
12.871992 91.779 -111.0726
12.965268 91.804 -111.7948
13.059220 91.829 -112.5146
13.153852 91.853 -113.2321
13.249170 91.877 -113.9471
13.345179 91.900 -114.6598
13.441884 91.923 -115.3702
13.539289 91.946 -116.0782
13.637401 91.968 -116.7839
13.736223 91.989 -117.4873
13.835761 92.011 -118.1884
13.936021 92.032 -118.8872
14.037007 92.052 -119.5837
14.138725 92.073 -120.2780
14.241180 92.092 -120.9699
14.344377 92.112 -121.6596
14.448323 92.131 -122.3470
14.553021 92.149 -123.0320
14.658478 92.168 -123.7148
14.764700 92.185 -124.3953
14.871691 92.203 -125.0734
14.979457 92.220 -125.7491
15.088005 92.237 -126.4226
15.197339 92.253 -127.0937
15.307465 92.269 -127.7625
15.418389 92.285 -128.4291
15.530117 92.300 -129.0934
15.642655 92.315 -129.7556
15.756008 92.329 -130.4156
15.870182 92.344 -131.0736
15.985184 92.357 -131.7296
16.101019 92.371 -132.3835
16.217694 92.384 -133.0356
16.335214 92.397 -133.6857
16.453586 92.409 -134.3340
16.572815 92.421 -134.9805
16.692909 92.432 -135.6251
16.813872 92.443 -136.2679
16.935713 92.454 -136.9089
17.058436 92.464 -137.5480
17.182048 92.474 -138.1852
17.306556 92.484 -138.8204
17.431967 92.493 -139.4537
17.558286 92.501 -140.0850
17.685521 92.509 -140.7142
17.813677 92.517 -141.3412
17.942762 92.524 -141.9661
18.072783 92.531 -142.5887
18.203746 92.537 -143.2092
18.335658 92.544 -143.8273
18.468526 92.549 -144.4431
18.602356 92.555 -145.0568
18.737156 92.560 -145.6683
18.872934 92.565 -146.2779
19.009695 92.570 -146.8857
19.147447 92.574 -147.4919
19.286197 92.579 -148.0969
19.425953 92.583 -148.7010
19.566721 92.587 -149.3044
19.708510 92.591 -149.9077
19.851326 92.594 -150.5109
19.995177 92.597 -151.1143
20.140070 92.600 -151.7179
20.286013 92.602 -152.3215
20.433014 92.604 -152.9250
20.581080 92.605 -153.5278
20.730219 92.605 -154.1294
20.880439 92.605 -154.7289
21.031747 92.603 -155.3258
21.184152 92.602 -155.9191
21.337661 92.599 -156.5083
21.492282 92.597 -157.0929
21.648024 92.594 -157.6727
21.804895 92.591 -158.2480
21.962902 92.588 -158.8193
22.122054 92.586 -159.3872
22.282360 92.584 -159.9529
22.443827 92.582 -160.5176
22.606464 92.580 -161.0824
22.770280 92.579 -161.6483
22.935283 92.578 -162.2160
23.101481 92.576 -162.7860
23.268884 92.575 -163.3582
23.437500 92.572 -163.9321
23.607338 92.569 -164.5068
23.778406 92.565 -165.0815
23.950714 92.561 -165.6549
24.124271 92.555 -166.2261
24.299086 92.549 -166.7943
24.475167 92.543 -167.3590
24.652524 92.536 -167.9203
24.831166 92.529 -168.4785
25.011103 92.522 -169.0341
25.192344 92.514 -169.5880
25.374898 92.507 -170.1407
25.558775 92.499 -170.6930
25.743984 92.491 -171.2450
25.930536 92.483 -171.7968
26.118439 92.474 -172.3479
26.307704 92.464 -172.8980
26.498341 92.454 -173.4464
26.690359 92.443 -173.9928
26.883768 92.432 -174.5366
27.078579 92.420 -175.0779
27.274801 92.408 -175.6167
27.472446 92.396 -176.1533
27.671522 92.384 -176.6881
27.872042 92.371 -177.2215
28.074014 92.359 -177.7538
28.277450 92.345 -178.2852
28.482360 92.332 -178.8159
28.688755 92.319 -179.3459
28.896645 92.305 -179.8755
29.106042 92.291 179.5951
29.316957 92.277 179.0656
29.529400 92.263 178.5358
29.743382 92.249 178.0051
29.958915 92.234 177.4736
30.176009 92.219 176.9411
30.394677 92.203 176.4081
30.614929 92.187 175.8749
30.836778 92.170 175.3423
31.060234 92.153 174.8110
31.285309 92.135 174.2814
31.512015 92.117 173.7538
31.740364 92.098 173.2286
31.970368 92.079 172.7056
32.202039 92.060 172.1848
32.435388 92.040 171.6664
32.670428 92.021 171.1503
32.907171 92.001 170.6370
33.145630 91.981 170.1265
33.385817 91.961 169.6190
33.627745 91.940 169.1143
33.871425 91.920 168.6116
34.116871 91.901 168.1102
34.364096 91.881 167.6085
34.613113 91.862 167.1055
34.863934 91.842 166.6000
35.116572 91.822 166.0917
35.371041 91.802 165.5806
35.627354 91.780 165.0680
35.885525 91.757 164.5555
36.145566 91.734 164.0452
36.407492 91.709 163.5392
36.671316 91.683 163.0388
36.937051 91.657 162.5446
37.204712 91.631 162.0561
37.474313 91.604 161.5720
37.745867 91.579 161.0903
38.019389 91.553 160.6088
38.294893 91.527 160.1259
38.572394 91.502 159.6409
38.851905 91.475 159.1539
39.133442 91.448 158.6659
39.417019 91.420 158.1782
39.702651 91.392 157.6921
39.990353 91.363 157.2084
40.280140 91.334 156.7275
40.572026 91.304 156.2491
40.866028 91.274 155.7728
41.162160 91.244 155.2978
41.460438 91.214 154.8234
41.760877 91.185 154.3488
42.063494 91.155 153.8734
42.368303 91.124 153.3967
42.675322 91.094 152.9186
42.984565 91.063 152.4399
43.296048 91.031 151.9619
43.609789 90.998 151.4861
43.925804 90.966 151.0137
44.244108 90.932 150.5450
44.564719 90.899 150.0790
44.887654 90.866 149.6139
45.212928 90.834 149.1480
45.540560 90.800 148.6808
45.870565 90.766 148.2136
46.202962 90.731 147.7487
46.537768 90.695 147.2890
46.875000 90.658 146.8362
47.214676 90.622 146.3903
47.556813 90.586 145.9492
47.901429 90.550 145.5103
48.248542 90.514 145.0714
48.598171 90.478 144.6318
48.950334 90.442 144.1921
49.305048 90.405 143.7535
49.662333 90.367 143.3171
50.022206 90.330 142.8829
50.384688 90.291 142.4504
50.749796 90.253 142.0186
51.117550 90.215 141.5869
51.487969 90.176 141.1550
51.861072 90.137 140.7228
52.236879 90.098 140.2900
52.615409 90.059 139.8562
52.996681 90.019 139.4210
53.380717 89.980 138.9846
53.767536 89.940 138.5474
54.157158 89.899 138.1103
54.549603 89.859 137.6740
54.944892 89.819 137.2390
55.343045 89.778 136.8049
55.744084 89.738 136.3712
56.148028 89.698 135.9365
56.554900 89.657 135.5001
56.964720 89.616 135.0623
57.377510 89.574 134.6255
57.793291 89.530 134.1938
58.212085 89.485 133.7715
58.633914 89.440 133.3613
59.058799 89.394 132.9628
59.486764 89.349 132.5728
59.917829 89.305 132.1868
60.352019 89.260 131.8018
60.789354 89.216 131.4166
61.229859 89.171 131.0314
61.673556 89.126 130.6469
62.120468 89.080 130.2627
62.570618 89.035 129.8781
63.024031 88.989 129.4922
63.480729 88.942 129.1050
63.940736 88.895 128.7170
64.404077 88.848 128.3291
64.870776 88.800 127.9421
65.340856 88.752 127.5566
65.814343 88.705 127.1729
66.291261 88.657 126.7914
66.771635 88.609 126.4122
67.255489 88.561 126.0353
67.742850 88.513 125.6611
68.233743 88.465 125.2897
68.728193 88.416 124.9210
69.226226 88.368 124.5549
69.727867 88.319 124.1907
70.233144 88.271 123.8280
70.742083 88.222 123.4666
71.254709 88.173 123.1064
71.771050 88.123 122.7480
72.291132 88.073 122.3917
72.814984 88.024 122.0376
73.342631 87.974 121.6858
73.874102 87.924 121.3367
74.409424 87.874 120.9904
74.948626 87.825 120.6468
75.491734 87.775 120.3055
76.038779 87.727 119.9657
76.589787 87.678 119.6259
77.144788 87.629 119.2850
77.703811 87.579 118.9433
78.266885 87.528 118.6034
78.834039 87.476 118.2689
79.405303 87.423 117.9418
79.980706 87.370 117.6219
80.560280 87.317 117.3068
81.144053 87.264 116.9944
81.732056 87.211 116.6840
82.324320 87.158 116.3746
82.920876 87.106 116.0652
83.521755 87.055 115.7542
84.126988 87.004 115.4402
84.736607 86.953 115.1237
85.350643 86.901 114.8068
85.969129 86.850 114.4927
86.592097 86.798 114.1841
87.219579 86.746 113.8821
87.851608 86.695 113.5859
88.488217 86.644 113.2939
89.129439 86.593 113.0048
89.775308 86.543 112.7178
90.425856 86.492 112.4329
91.081119 86.442 112.1495
