* Measurement data measured by REW V5.31.3
* Source: Headset (CX31993 HIFI AUDIO), MICROPHONE (Master Volume), R, volume: 0.400
* Format: 256k Log Swept Sine, 1 sweep at -11.9 dBFS with no timing reference
* Dated: 05 26, 25 5:57:14 PM
* REW Settings:
*  C-weighting compensation: Off
*  Target level: 75.0 dB
* Note: ; 
* Measurement: Final A5000 L
* Smoothing: 1/12 octave
* Frequency Step: 96 ppo
* Start Frequency: 0.36621094 Hz
*
* Freq(Hz) SPL(dB) Phase(degrees)
0.366211 34.502 97.4241
0.368865 34.536 97.1868
0.371538 34.586 96.8352
0.374230 34.647 96.4007
0.376942 34.716 95.9101
0.379673 34.790 95.3833
0.382424 34.867 94.8331
0.385196 34.946 94.2677
0.387987 35.026 93.6918
0.390798 35.108 93.1082
0.393630 35.189 92.5184
0.396483 35.272 91.9234
0.399356 35.355 91.3237
0.402250 35.439 90.7199
0.405165 35.524 90.1121
0.408101 35.609 89.5006
0.411058 35.695 88.8858
0.414037 35.781 88.2679
0.417037 35.868 87.6471
0.420059 35.956 87.0236
0.423103 36.044 86.3978
0.426169 36.133 85.7698
0.429257 36.222 85.1400
0.432368 36.313 84.5085
0.435501 36.403 83.8756
0.438656 36.495 83.2416
0.441835 36.587 82.6067
0.445037 36.680 81.9711
0.448262 36.774 81.3350
0.451510 36.868 80.6988
0.454782 36.963 80.0626
0.458077 37.058 79.4267
0.461397 37.155 78.7912
0.464740 37.251 78.1565
0.468108 37.349 77.5226
0.471500 37.448 76.8898
0.474917 37.547 76.2582
0.478358 37.646 75.6282
0.481825 37.747 74.9997
0.485316 37.848 74.3731
0.488833 37.950 73.7484
0.492375 38.053 73.1259
0.495943 38.157 72.5056
0.499537 38.261 71.8878
0.503157 38.366 71.2724
0.506803 38.472 70.6597
0.510475 38.578 70.0498
0.514175 38.685 69.4427
0.517900 38.793 68.8386
0.521653 38.902 68.2375
0.525434 39.012 67.6396
0.529241 39.122 67.0448
0.533076 39.234 66.4532
0.536939 39.346 65.8650
0.540830 39.459 65.2801
0.544749 39.572 64.6986
0.548696 39.687 64.1205
0.552673 39.802 63.5458
0.556677 39.918 62.9746
0.560711 40.035 62.4069
0.564774 40.153 61.8426
0.568867 40.272 61.2818
0.572989 40.392 60.7245
0.577141 40.512 60.1706
0.581324 40.633 59.6201
0.585536 40.756 59.0731
0.589779 40.879 58.5294
0.594053 41.003 57.9891
0.598358 41.128 57.4520
0.602694 41.253 56.9183
0.607061 41.380 56.3878
0.611460 41.508 55.8605
0.615891 41.636 55.3363
0.620354 41.766 54.8152
0.624849 41.896 54.2972
0.629377 42.028 53.7821
0.633938 42.160 53.2699
0.638532 42.293 52.7606
0.643159 42.428 52.2541
0.647819 42.563 51.7502
0.652514 42.699 51.2491
0.657242 42.836 50.7506
0.662005 42.974 50.2546
0.666802 43.114 49.7610
0.671634 43.254 49.2699
0.676501 43.395 48.7811
0.681403 43.537 48.2945
0.686341 43.681 47.8102
0.691314 43.825 47.3280
0.696324 43.970 46.8480
0.701370 44.116 46.3700
0.706452 44.263 45.8943
0.711571 44.411 45.4209
0.716728 44.558 44.9501
0.721921 44.706 44.4825
0.727153 44.853 44.0187
0.732422 44.999 43.5597
0.737729 45.144 43.1068
0.743075 45.288 42.6611
0.748460 45.431 42.2234
0.753883 45.575 41.7942
0.759346 45.718 41.3737
0.764849 45.862 40.9620
0.770391 46.006 40.5589
0.775974 46.151 40.1641
0.781597 46.297 39.7774
0.787261 46.443 39.3985
0.792966 46.590 39.0270
0.798712 46.737 38.6625
0.804500 46.885 38.3049
0.810329 47.034 37.9537
0.816201 47.184 37.6086
0.822116 47.334 37.2692
0.828073 47.485 36.9353
0.834074 47.636 36.6066
0.840118 47.788 36.2827
0.846206 47.940 35.9633
0.852338 48.094 35.6481
0.858514 48.247 35.3368
0.864735 48.401 35.0292
0.871001 48.556 34.7249
0.877313 48.711 34.4237
0.883670 48.867 34.1252
0.890074 49.024 33.8293
0.896524 49.180 33.5356
0.903020 49.337 33.2439
0.909564 49.495 32.9540
0.916155 49.653 32.6655
0.922794 49.812 32.3783
0.929481 49.970 32.0921
0.936216 50.130 31.8067
0.943000 50.289 31.5218
0.949834 50.449 31.2373
0.956717 50.609 30.9529
0.963649 50.770 30.6684
0.970632 50.930 30.3836
0.977666 51.091 30.0983
0.984750 51.252 29.8123
0.991886 51.414 29.5253
0.999074 51.575 29.2373
1.006314 51.737 28.9481
1.013606 51.898 28.6573
1.020951 52.060 28.3650
1.028349 52.222 28.0709
1.035801 52.383 27.7748
1.043307 52.545 27.4766
1.050867 52.707 27.1763
1.058482 52.868 26.8737
1.066152 53.029 26.5689
1.073878 53.191 26.2621
1.081660 53.351 25.9534
1.089498 53.512 25.6436
1.097393 53.672 25.3333
1.105345 53.832 25.0236
1.113355 53.991 24.7155
1.121423 54.150 24.4096
1.129549 54.309 24.1065
1.137734 54.467 23.8065
1.145979 54.624 23.5095
1.154283 54.781 23.2157
1.162647 54.938 22.9247
1.171072 55.094 22.6363
1.179558 55.249 22.3505
1.188106 55.405 22.0669
1.196715 55.559 21.7853
1.205387 55.714 21.5054
1.214122 55.867 21.2270
1.222920 56.021 20.9500
1.231782 56.174 20.6739
1.240708 56.327 20.3987
1.249699 56.480 20.1240
1.258754 56.632 19.8497
1.267876 56.784 19.5756
1.277063 56.936 19.3013
1.286318 57.087 19.0268
1.295639 57.239 18.7517
1.305027 57.390 18.4759
1.314484 57.541 18.1992
1.324009 57.692 17.9213
1.333604 57.843 17.6421
1.343268 57.995 17.3613
1.353002 58.146 17.0788
1.362806 58.297 16.7944
1.372681 58.449 16.5079
1.382628 58.600 16.2191
1.392647 58.752 15.9279
1.402739 58.905 15.6340
1.412904 59.057 15.3376
1.423142 59.211 15.0385
1.433455 59.364 14.7368
1.443843 59.518 14.4330
1.454305 59.672 14.1274
1.464844 59.826 13.8209
1.475459 59.980 13.5142
1.486150 60.134 13.2084
1.496920 60.288 12.9039
1.507767 60.441 12.6011
1.518693 60.595 12.3001
1.529698 60.747 12.0007
1.540783 60.899 11.7029
1.551948 61.051 11.4061
1.563194 61.203 11.1103
1.574521 61.354 10.8149
1.585931 61.504 10.5197
1.597423 61.655 10.2242
1.608999 61.805 9.9281
1.620658 61.954 9.6311
1.632402 62.104 9.3329
1.644232 62.253 9.0329
1.656146 62.402 8.7310
1.668147 62.550 8.4268
1.680235 62.699 8.1200
1.692411 62.847 7.8102
1.704675 62.995 7.4971
1.717028 63.144 7.1805
1.729470 63.292 6.8599
1.742003 63.440 6.5352
1.754626 63.588 6.2060
1.767341 63.737 5.8723
1.780147 63.885 5.5338
1.793047 64.034 5.1905
1.806040 64.182 4.8426
1.819128 64.331 4.4904
1.832310 64.479 4.1346
1.845587 64.628 3.7759
1.858961 64.776 3.4149
1.872432 64.924 3.0524
1.886001 65.071 2.6888
1.899667 65.218 2.3242
1.913433 65.364 1.9587
1.927299 65.510 1.5924
1.941265 65.656 1.2252
1.955332 65.801 0.8570
1.969501 65.945 0.4877
1.983773 66.090 0.1170
1.998148 66.233 -0.2551
2.012627 66.377 -0.6289
2.027212 66.520 -1.0045
2.041902 66.663 -1.3821
2.056698 66.806 -1.7619
2.071602 66.948 -2.1441
2.086614 67.091 -2.5290
2.101734 67.233 -2.9167
2.116964 67.375 -3.3074
2.132304 67.517 -3.7013
2.147756 67.659 -4.0986
2.163320 67.801 -4.4992
2.178996 67.942 -4.9031
2.194786 68.084 -5.3101
2.210690 68.225 -5.7199
2.226710 68.366 -6.1321
2.242845 68.506 -6.5464
2.259098 68.646 -6.9625
2.275468 68.785 -7.3803
2.291957 68.924 -7.7996
2.308566 69.062 -8.2204
2.325295 69.200 -8.6426
2.342145 69.337 -9.0663
2.359117 69.474 -9.4916
2.376212 69.610 -9.9185
2.393431 69.746 -10.3472
2.410775 69.882 -10.7776
2.428244 70.017 -11.2100
2.445840 70.152 -11.6445
2.463564 70.287 -12.0812
2.481416 70.421 -12.5202
2.499397 70.555 -12.9617
2.517509 70.689 -13.4058
2.535752 70.823 -13.8526
2.554127 70.956 -14.3022
2.572635 71.089 -14.7544
2.591277 71.222 -15.2092
2.610055 71.354 -15.6664
2.628968 71.485 -16.1259
2.648019 71.616 -16.5876
2.667208 71.747 -17.0513
2.686535 71.877 -17.5168
2.706003 72.006 -17.9841
2.725612 72.135 -18.4532
2.745363 72.263 -18.9240
2.765257 72.391 -19.3964
2.785295 72.518 -19.8705
2.805478 72.645 -20.3463
2.825808 72.771 -20.8238
2.846285 72.898 -21.3031
2.866910 73.023 -21.7843
2.887685 73.149 -22.2675
2.908611 73.274 -22.7529
2.929688 73.399 -23.2405
2.950917 73.523 -23.7305
2.972301 73.647 -24.2230
2.993839 73.770 -24.7178
3.015534 73.893 -25.2149
3.037386 74.015 -25.7142
3.059396 74.136 -26.2155
3.081565 74.257 -26.7187
3.103896 74.377 -27.2235
3.126388 74.497 -27.7300
3.149043 74.616 -28.2380
3.171862 74.735 -28.7473
3.194847 74.853 -29.2580
3.217998 74.971 -29.7701
3.241317 75.089 -30.2837
3.264805 75.206 -30.7988
3.288463 75.322 -31.3156
3.312293 75.438 -31.8344
3.336295 75.554 -32.3553
3.360471 75.669 -32.8784
3.384822 75.783 -33.4036
3.409350 75.897 -33.9310
3.434056 76.010 -34.4603
3.458940 76.123 -34.9913
3.484005 76.234 -35.5239
3.509252 76.346 -36.0580
3.534681 76.457 -36.5933
3.560295 76.567 -37.1299
3.586094 76.677 -37.6676
3.612081 76.786 -38.2066
3.638255 76.895 -38.7470
3.664620 77.003 -39.2890
3.691175 77.111 -39.8330
3.717923 77.218 -40.3790
3.744864 77.325 -40.9272
3.772001 77.431 -41.4775
3.799335 77.536 -42.0298
3.826866 77.640 -42.5837
3.854597 77.744 -43.1391
3.882529 77.848 -43.6958
3.910664 77.950 -44.2535
3.939002 78.052 -44.8121
3.967546 78.154 -45.3717
3.996296 78.255 -45.9323
4.025255 78.356 -46.4941
4.054423 78.455 -47.0574
4.083804 78.554 -47.6225
4.113396 78.653 -48.1896
4.143204 78.751 -48.7584
4.173227 78.848 -49.3290
4.203468 78.944 -49.9009
4.233928 79.040 -50.4740
4.264609 79.135 -51.0478
4.295512 79.229 -51.6222
4.326639 79.323 -52.1971
4.357992 79.416 -52.7726
4.389572 79.508 -53.3488
4.421380 79.600 -53.9260
4.453419 79.690 -54.5045
4.485691 79.781 -55.0845
4.518196 79.870 -55.6658
4.550936 79.958 -56.2483
4.583914 80.046 -56.8315
4.617131 80.133 -57.4150
4.650589 80.220 -57.9986
4.684289 80.305 -58.5819
4.718233 80.390 -59.1650
4.752424 80.475 -59.7479
4.786862 80.558 -60.3309
4.821549 80.641 -60.9142
4.856488 80.723 -61.4980
4.891680 80.804 -62.0822
4.927127 80.884 -62.6665
4.962831 80.963 -63.2507
4.998794 81.042 -63.8342
5.035017 81.120 -64.4167
5.071503 81.198 -64.9979
5.108253 81.274 -65.5780
5.145270 81.350 -66.1568
5.182555 81.426 -66.7349
5.220110 81.500 -67.3121
5.257937 81.574 -67.8887
5.296038 81.647 -68.4643
5.334415 81.719 -69.0388
5.373071 81.791 -69.6116
5.412006 81.862 -70.1826
5.451224 81.932 -70.7515
5.490725 82.002 -71.3184
5.530514 82.072 -71.8832
5.570590 82.140 -72.4462
5.610957 82.209 -73.0076
5.651616 82.276 -73.5672
5.692570 82.343 -74.1250
5.733821 82.410 -74.6809
5.775370 82.476 -75.2346
5.817221 82.542 -75.7860
5.859375 82.607 -76.3352
5.901834 82.672 -76.8822
5.944602 82.737 -77.4271
5.987679 82.801 -77.9701
6.031068 82.865 -78.5113
6.074771 82.929 -79.0508
6.118792 82.993 -79.5888
6.163131 83.056 -80.1252
6.207792 83.119 -80.6600
6.252776 83.182 -81.1935
6.298086 83.245 -81.7256
6.343725 83.308 -82.2566
6.389694 83.370 -82.7868
6.435996 83.433 -83.3163
6.482634 83.495 -83.8454
6.529610 83.557 -84.3743
6.576926 83.619 -84.9033
6.624585 83.681 -85.4325
6.672590 83.743 -85.9619
6.720942 83.805 -86.4919
6.769645 83.867 -87.0226
6.818700 83.928 -87.5542
6.868111 83.990 -88.0871
6.917881 84.051 -88.6215
6.968010 84.112 -89.1575
7.018504 84.173 -89.6954
7.069362 84.233 -90.2351
7.120590 84.294 -90.7769
7.172189 84.354 -91.3207
7.224161 84.413 -91.8667
7.276511 84.472 -92.4149
7.329239 84.531 -92.9654
7.382350 84.589 -93.5183
7.435845 84.647 -94.0737
7.489729 84.704 -94.6313
7.544002 84.760 -95.1910
7.598669 84.816 -95.7526
7.653732 84.871 -96.3158
7.709194 84.925 -96.8808
7.765058 84.979 -97.4472
7.821327 85.031 -98.0150
7.878004 85.083 -98.5838
7.935091 85.134 -99.1532
7.992592 85.184 -99.7227
8.050510 85.233 -100.2919
8.108847 85.281 -100.8607
8.167607 85.328 -101.4288
8.226793 85.374 -101.9958
8.286408 85.419 -102.5613
8.346454 85.463 -103.1246
8.406936 85.506 -103.6854
8.467856 85.548 -104.2433
8.529218 85.590 -104.7980
8.591024 85.630 -105.3494
8.653278 85.670 -105.8969
8.715983 85.709 -106.4403
8.779143 85.748 -106.9792
8.842760 85.785 -107.5134
8.906839 85.823 -108.0427
8.971381 85.859 -108.5671
9.036392 85.896 -109.0866
9.101873 85.932 -109.6011
9.167829 85.967 -110.1105
9.234263 86.003 -110.6149
9.301178 86.038 -111.1146
9.368578 86.074 -111.6097
9.436467 86.109 -112.1006
9.504847 86.145 -112.5876
9.573723 86.180 -113.0710
9.643099 86.216 -113.5512
9.712976 86.252 -114.0286
9.783361 86.288 -114.5037
9.854255 86.325 -114.9770
9.925663 86.361 -115.4491
9.997588 86.398 -115.9204
10.070035 86.435 -116.3913
10.143007 86.472 -116.8623
10.216507 86.510 -117.3339
10.290540 86.547 -117.8065
10.365109 86.585 -118.2804
10.440219 86.622 -118.7559
10.515873 86.659 -119.2331
10.592076 86.696 -119.7123
10.668830 86.733 -120.1936
10.746141 86.770 -120.6771
10.824012 86.806 -121.1626
10.902447 86.842 -121.6499
10.981451 86.877 -122.1391
11.061027 86.911 -122.6298
11.141180 86.945 -123.1218
11.221913 86.978 -123.6148
11.303232 87.011 -124.1084
11.385140 87.042 -124.6022
11.467641 87.073 -125.0960
11.550741 87.103 -125.5894
11.634442 87.133 -126.0820
11.718750 87.162 -126.5736
11.803669 87.190 -127.0638
11.889203 87.217 -127.5524
11.975357 87.243 -128.0392
12.062136 87.270 -128.5242
12.149543 87.295 -129.0072
12.237583 87.320 -129.4882
12.326262 87.344 -129.9673
12.415583 87.368 -130.4445
12.505552 87.392 -130.9199
12.596172 87.415 -131.3938
12.687449 87.438 -131.8662
12.779387 87.460 -132.3373
12.871992 87.482 -132.8074
12.965268 87.504 -133.2766
13.059220 87.525 -133.7450
13.153852 87.546 -134.2128
13.249170 87.566 -134.6801
13.345179 87.586 -135.1470
13.441884 87.606 -135.6135
13.539289 87.625 -136.0796
13.637401 87.643 -136.5453
13.736223 87.661 -137.0105
13.835761 87.679 -137.4752
13.936021 87.696 -137.9394
14.037007 87.713 -138.4030
14.138725 87.729 -138.8659
14.241180 87.744 -139.3281
14.344377 87.759 -139.7896
14.448323 87.774 -140.2504
14.553021 87.789 -140.7106
14.658478 87.802 -141.1702
14.764700 87.816 -141.6292
14.871691 87.829 -142.0877
14.979457 87.842 -142.5459
15.088005 87.854 -143.0037
15.197339 87.866 -143.4613
15.307465 87.878 -143.9186
15.418389 87.889 -144.3756
15.530117 87.900 -144.8323
15.642655 87.911 -145.2887
15.756008 87.921 -145.7447
15.870182 87.930 -146.2002
15.985184 87.940 -146.6552
16.101019 87.948 -147.1094
16.217694 87.957 -147.5629
16.335214 87.965 -148.0156
16.453586 87.973 -148.4674
16.572815 87.980 -148.9183
16.692909 87.988 -149.3681
16.813872 87.995 -149.8170
16.935713 88.001 -150.2649
17.058436 88.008 -150.7118
17.182048 88.014 -151.1575
17.306556 88.020 -151.6022
17.431967 88.025 -152.0456
17.558286 88.031 -152.4879
17.685521 88.036 -152.9289
17.813677 88.041 -153.3687
17.942762 88.045 -153.8072
18.072783 88.050 -154.2445
18.203746 88.054 -154.6807
18.335658 88.058 -155.1158
18.468526 88.062 -155.5500
18.602356 88.065 -155.9833
18.737156 88.068 -156.4157
18.872934 88.071 -156.8469
19.009695 88.073 -157.2767
19.147447 88.074 -157.7043
19.286197 88.074 -158.1289
19.425953 88.074 -158.5495
19.566721 88.073 -158.9647
19.708510 88.071 -159.3732
19.851326 88.068 -159.7736
19.995177 88.065 -160.1647
20.140070 88.062 -160.5458
20.286013 88.059 -160.9165
20.433014 88.057 -161.2773
20.581080 88.055 -161.6293
20.730219 88.055 -161.9748
20.880439 88.057 -162.3164
21.031747 88.060 -162.6576
21.184152 88.065 -163.0019
21.337661 88.071 -163.3531
21.492282 88.078 -163.7143
21.648024 88.086 -164.0880
21.804895 88.093 -164.4754
21.962902 88.100 -164.8766
22.122054 88.105 -165.2903
22.282360 88.107 -165.7137
22.443827 88.107 -166.1435
22.606464 88.103 -166.5751
22.770280 88.097 -167.0043
22.935283 88.088 -167.4266
23.101481 88.076 -167.8387
23.268884 88.063 -168.2379
23.437500 88.048 -168.6232
23.607338 88.033 -168.9948
23.778406 88.018 -169.3542
23.950714 88.004 -169.7036
24.124271 87.990 -170.0462
24.299086 87.977 -170.3850
24.475167 87.965 -170.7227
24.652524 87.953 -171.0614
24.831166 87.941 -171.4024
25.011103 87.929 -171.7457
25.192344 87.916 -172.0910
25.374898 87.903 -172.4370
25.558775 87.889 -172.7823
25.743984 87.874 -173.1255
25.930536 87.859 -173.4654
26.118439 87.844 -173.8013
26.307704 87.828 -174.1330
26.498341 87.813 -174.4608
26.690359 87.798 -174.7853
26.883768 87.783 -175.1074
27.078579 87.769 -175.4280
27.274801 87.755 -175.7478
27.472446 87.741 -176.0674
27.671522 87.728 -176.3869
27.872042 87.715 -176.7063
28.074014 87.702 -177.0252
28.277450 87.689 -177.3434
28.482360 87.676 -177.6607
28.688755 87.663 -177.9770
28.896645 87.651 -178.2930
29.106042 87.639 -178.6096
29.316957 87.627 -178.9280
29.529400 87.616 -179.2496
29.743382 87.605 -179.5759
29.958915 87.593 -179.9072
30.176009 87.581 179.7566
30.394677 87.567 179.4170
30.614929 87.552 179.0765
30.836778 87.534 178.7383
31.060234 87.516 178.4062
31.285309 87.495 178.0829
31.512015 87.474 177.7704
31.740364 87.453 177.4691
31.970368 87.432 177.1776
32.202039 87.411 176.8932
32.435388 87.391 176.6128
32.670428 87.372 176.3332
32.907171 87.354 176.0521
33.145630 87.335 175.7685
33.385817 87.316 175.4825
33.627745 87.296 175.1950
33.871425 87.276 174.9072
34.116871 87.256 174.6196
34.364096 87.235 174.3325
34.613113 87.213 174.0454
34.863934 87.192 173.7582
35.116572 87.169 173.4708
35.371041 87.146 173.1844
35.627354 87.122 172.9008
35.885525 87.098 172.6217
36.145566 87.073 172.3488
36.407492 87.048 172.0825
36.671316 87.023 171.8216
36.937051 86.999 171.5642
37.204712 86.976 171.3077
37.474313 86.953 171.0500
37.745867 86.931 170.7900
38.019389 86.908 170.5282
38.294893 86.885 170.2657
38.572394 86.861 170.0041
38.851905 86.837 169.7441
39.133442 86.812 169.4864
39.417019 86.787 169.2306
39.702651 86.762 168.9766
39.990353 86.736 168.7251
40.280140 86.709 168.4773
40.572026 86.682 168.2349
40.866028 86.654 167.9994
41.162160 86.626 167.7709
41.460438 86.599 167.5481
41.760877 86.572 167.3281
42.063494 86.547 167.1073
42.368303 86.521 166.8831
42.675322 86.495 166.6541
42.984565 86.469 166.4212
43.296048 86.441 166.1873
43.609789 86.412 165.9557
43.925804 86.383 165.7296
44.244108 86.353 165.5101
44.564719 86.324 165.2964
44.887654 86.295 165.0861
45.212928 86.267 164.8757
45.540560 86.240 164.6624
45.870565 86.212 164.4451
46.202962 86.184 164.2247
46.537768 86.155 164.0040
46.875000 86.125 163.7860
47.214676 86.095 163.5735
47.556813 86.064 163.3672
47.901429 86.033 163.1665
48.248542 86.003 162.9694
48.598171 85.973 162.7737
48.950334 85.943 162.5780
49.305048 85.913 162.3821
49.662333 85.883 162.1866
50.022206 85.852 161.9922
50.384688 85.821 161.7994
50.749796 85.790 161.6077
51.117550 85.759 161.4160
51.487969 85.727 161.2231
51.861072 85.696 161.0284
52.236879 85.663 160.8333
52.615409 85.630 160.6399
52.996681 85.596 160.4510
53.380717 85.562 160.2684
53.767536 85.528 160.0920
54.157158 85.494 159.9199
54.549603 85.461 159.7501
54.944892 85.428 159.5816
55.343045 85.395 159.4158
55.744084 85.362 159.2550
56.148028 85.329 159.1005
56.554900 85.296 158.9515
56.964720 85.264 158.8050
57.377510 85.232 158.6584
57.793291 85.199 158.5114
58.212085 85.166 158.3660
58.633914 85.132 158.2249
59.058799 85.097 158.0889
59.486764 85.063 157.9559
59.917829 85.029 157.8224
60.352019 84.995 157.6862
60.789354 84.960 157.5473
61.229859 84.925 157.4069
61.673556 84.890 157.2650
62.120468 84.856 157.1204
62.570618 84.822 156.9714
63.024031 84.789 156.8177
63.480729 84.756 156.6601
63.940736 84.724 156.4998
64.404077 84.693 156.3371
64.870776 84.662 156.1727
65.340856 84.633 156.0076
65.814343 84.604 155.8417
66.291261 84.576 155.6720
66.771635 84.548 155.4946
67.255489 84.518 155.3103
67.742850 84.483 155.1299
68.233743 84.444 154.9722
68.728193 84.401 154.8536
69.226226 84.358 154.7781
69.727867 84.318 154.7342
70.233144 84.281 154.7024
70.742083 84.247 154.6651
71.254709 84.213 154.6133
71.771050 84.179 154.5470
72.291132 84.143 154.4714
72.814984 84.106 154.3925
73.342631 84.069 154.3139
73.874102 84.031 154.2356
74.409424 83.995 154.1550
74.948626 83.959 154.0696
75.491734 83.925 153.9789
76.038779 83.890 153.8841
76.589787 83.856 153.7873
77.144788 83.822 153.6909
77.703811 83.788 153.5979
78.266885 83.753 153.5102
78.834039 83.719 153.4288
79.405303 83.684 153.3527
79.980706 83.649 153.2803
80.560280 83.614 153.2092
81.144053 83.579 153.1371
81.732056 83.543 153.0624
82.324320 83.508 152.9846
82.920876 83.472 152.9043
83.521755 83.436 152.8230
84.126988 83.400 152.7423
84.736607 83.365 152.6630
85.350643 83.330 152.5853
85.969129 83.296 152.5096
86.592097 83.262 152.4369
87.219579 83.228 152.3690
87.851608 83.193 152.3074
88.488217 83.159 152.2525
89.129439 83.124 152.2026
89.775308 83.090 152.1541
90.425856 83.055 152.1034
91.081119 83.020 152.0489
91.741131 82.983 151.9925
92.405925 82.945 151.9376
93.075536 82.908 151.8867
93.750000 82.870 151.8405
94.429351 82.833 151.7980
95.113625 82.797 151.7574
95.802858 82.762 151.7181
