* Measurement data measured by REW V5.31.3
* Source: Headset (CX31993 HIFI AUDIO), MICROPHONE (Master Volume), R, volume: 0.400
* Format: 256k Log Swept Sine, 1 sweep at -11.9 dBFS with no timing reference
* Dated: 05 26, 25 6:04:40 PM
* REW Settings:
*  C-weighting compensation: Off
*  Target level: 75.0 dB
* Note: ; 
* Measurement: Final A5000 500 L
* Smoothing: 1/12 octave
* Frequency Step: 96 ppo
* Start Frequency: 0.36621094 Hz
*
* Freq(Hz) SPL(dB) Phase(degrees)
0.366211 37.728 39.4728
0.368865 37.758 39.5010
0.371538 37.802 39.5433
0.374230 37.856 39.5966
0.376942 37.917 39.6583
0.379673 37.982 39.7264
0.382424 38.050 39.7996
0.385196 38.120 39.8771
0.387987 38.190 39.9584
0.390798 38.262 40.0431
0.393630 38.334 40.1310
0.396483 38.407 40.2220
0.399356 38.481 40.3160
0.402250 38.555 40.4128
0.405165 38.629 40.5123
0.408101 38.704 40.6145
0.411058 38.780 40.7192
0.414037 38.856 40.8264
0.417037 38.933 40.9358
0.420059 39.010 41.0475
0.423103 39.088 41.1612
0.426169 39.167 41.2770
0.429257 39.246 41.3946
0.432368 39.325 41.5139
0.435501 39.405 41.6348
0.438656 39.486 41.7572
0.441835 39.567 41.8809
0.445037 39.649 42.0059
0.448262 39.732 42.1320
0.451510 39.815 42.2589
0.454782 39.899 42.3867
0.458077 39.983 42.5152
0.461397 40.068 42.6442
0.464740 40.153 42.7735
0.468108 40.240 42.9031
0.471500 40.326 43.0328
0.474917 40.414 43.1624
0.478358 40.502 43.2917
0.481825 40.591 43.4207
0.485316 40.680 43.5492
0.488833 40.770 43.6769
0.492375 40.861 43.8038
0.495943 40.952 43.9297
0.499537 41.044 44.0545
0.503157 41.136 44.1779
0.506803 41.230 44.2999
0.510475 41.324 44.4202
0.514175 41.418 44.5387
0.517900 41.514 44.6553
0.521653 41.610 44.7697
0.525434 41.707 44.8819
0.529241 41.804 44.9916
0.533076 41.902 45.0987
0.536939 42.001 45.2031
0.540830 42.101 45.3046
0.544749 42.201 45.4031
0.548696 42.302 45.4983
0.552673 42.404 45.5902
0.556677 42.506 45.6785
0.560711 42.609 45.7632
0.564774 42.713 45.8441
0.568867 42.818 45.9210
0.572989 42.924 45.9939
0.577141 43.030 46.0625
0.581324 43.137 46.1267
0.585536 43.245 46.1864
0.589779 43.353 46.2415
0.594053 43.463 46.2918
0.598358 43.573 46.3372
0.602694 43.684 46.3776
0.607061 43.796 46.4129
0.611460 43.908 46.4429
0.615891 44.022 46.4675
0.620354 44.136 46.4866
0.624849 44.251 46.5001
0.629377 44.367 46.5080
0.633938 44.484 46.5100
0.638532 44.601 46.5062
0.643159 44.720 46.4963
0.647819 44.839 46.4804
0.652514 44.959 46.4583
0.657242 45.080 46.4300
0.662005 45.202 46.3954
0.666802 45.325 46.3543
0.671634 45.449 46.3068
0.676501 45.573 46.2528
0.681403 45.699 46.1922
0.686341 45.825 46.1250
0.691314 45.953 46.0512
0.696324 46.081 45.9707
0.701370 46.210 45.8837
0.706452 46.339 45.7901
0.711571 46.469 45.6904
0.716728 46.600 45.5849
0.721921 46.730 45.4743
0.727153 46.860 45.3597
0.732422 46.990 45.2424
0.737729 47.118 45.1242
0.743075 47.246 45.0065
0.748460 47.373 44.8906
0.753883 47.500 44.7771
0.759346 47.627 44.6665
0.764849 47.754 44.5588
0.770391 47.882 44.4540
0.775974 48.011 44.3518
0.781597 48.140 44.2520
0.787261 48.270 44.1542
0.792966 48.400 44.0581
0.798712 48.531 43.9634
0.804500 48.662 43.8697
0.810329 48.794 43.7768
0.816201 48.927 43.6843
0.822116 49.060 43.5918
0.828073 49.193 43.4991
0.834074 49.328 43.4058
0.840118 49.462 43.3117
0.846206 49.598 43.2164
0.852338 49.734 43.1197
0.858514 49.870 43.0213
0.864735 50.007 42.9208
0.871001 50.144 42.8181
0.877313 50.282 42.7127
0.883670 50.421 42.6046
0.890074 50.560 42.4934
0.896524 50.699 42.3788
0.903020 50.839 42.2607
0.909564 50.980 42.1387
0.916155 51.120 42.0127
0.922794 51.262 41.8823
0.929481 51.404 41.7475
0.936216 51.546 41.6078
0.943000 51.688 41.4632
0.949834 51.831 41.3134
0.956717 51.975 41.1582
0.963649 52.119 40.9974
0.970632 52.263 40.8308
0.977666 52.408 40.6582
0.984750 52.552 40.4794
0.991886 52.698 40.2942
0.999074 52.843 40.1024
1.006314 52.989 39.9039
1.013606 53.135 39.6984
1.020951 53.282 39.4859
1.028349 53.429 39.2660
1.035801 53.576 39.0388
1.043307 53.723 38.8041
1.050867 53.870 38.5618
1.058482 54.018 38.3119
1.066152 54.166 38.0544
1.073878 54.313 37.7896
1.081660 54.462 37.5181
1.089498 54.610 37.2407
1.097393 54.758 36.9584
1.105345 54.906 36.6727
1.113355 55.054 36.3852
1.121423 55.203 36.0968
1.129549 55.351 35.8086
1.137734 55.499 35.5209
1.145979 55.648 35.2339
1.154283 55.796 34.9478
1.162647 55.944 34.6623
1.171072 56.092 34.3774
1.179558 56.240 34.0929
1.188106 56.389 33.8086
1.196715 56.537 33.5243
1.205387 56.685 33.2397
1.214122 56.833 32.9546
1.222920 56.981 32.6688
1.231782 57.129 32.3821
1.240708 57.277 32.0942
1.249699 57.426 31.8049
1.258754 57.574 31.5139
1.267876 57.722 31.2211
1.277063 57.870 30.9262
1.286318 58.019 30.6290
1.295639 58.167 30.3291
1.305027 58.315 30.0265
1.314484 58.464 29.7209
1.324009 58.612 29.4120
1.333604 58.761 29.0996
1.343268 58.910 28.7835
1.353002 59.059 28.4634
1.362806 59.208 28.1391
1.372681 59.357 27.8105
1.382628 59.506 27.4771
1.392647 59.656 27.1390
1.402739 59.805 26.7958
1.412904 59.955 26.4475
1.423142 60.105 26.0941
1.433455 60.255 25.7356
1.443843 60.406 25.3724
1.454305 60.556 25.0050
1.464844 60.707 24.6344
1.475459 60.857 24.2615
1.486150 61.007 23.8874
1.496920 61.158 23.5129
1.507767 61.307 23.1385
1.518693 61.457 22.7645
1.529698 61.606 22.3908
1.540783 61.755 22.0174
1.551948 61.904 21.6440
1.563194 62.052 21.2704
1.574521 62.200 20.8963
1.585931 62.348 20.5213
1.597423 62.496 20.1453
1.608999 62.643 19.7677
1.620658 62.790 19.3884
1.632402 62.936 19.0070
1.644232 63.083 18.6231
1.656146 63.229 18.2365
1.668147 63.376 17.8467
1.680235 63.522 17.4534
1.692411 63.667 17.0564
1.704675 63.813 16.6552
1.717028 63.959 16.2495
1.729470 64.104 15.8390
1.742003 64.250 15.4233
1.754626 64.395 15.0022
1.767341 64.541 14.5753
1.780147 64.686 14.1426
1.793047 64.832 13.7038
1.806040 64.977 13.2589
1.819128 65.123 12.8083
1.832310 65.268 12.3524
1.845587 65.413 11.8918
1.858961 65.558 11.4273
1.872432 65.702 10.9595
1.886001 65.845 10.4889
1.899667 65.989 10.0159
1.913433 66.131 9.5409
1.927299 66.274 9.0639
1.941265 66.415 8.5852
1.955332 66.557 8.1048
1.969501 66.697 7.6229
1.983773 66.838 7.1393
1.998148 66.978 6.6541
2.012627 67.117 6.1672
2.027212 67.256 5.6787
2.041902 67.395 5.1884
2.056698 67.534 4.6961
2.071602 67.672 4.2019
2.086614 67.810 3.7055
2.101734 67.947 3.2067
2.116964 68.085 2.7054
2.132304 68.222 2.2014
2.147756 68.359 1.6944
2.163320 68.496 1.1843
2.178996 68.632 0.6709
2.194786 68.769 0.1541
2.210690 68.904 -0.3661
2.226710 69.040 -0.8897
2.242845 69.174 -1.4165
2.259098 69.309 -1.9462
2.275468 69.442 -2.4785
2.291957 69.575 -3.0132
2.308566 69.707 -3.5500
2.325295 69.839 -4.0886
2.342145 69.970 -4.6287
2.359117 70.100 -5.1703
2.376212 70.230 -5.7130
2.393431 70.359 -6.2568
2.410775 70.488 -6.8015
2.428244 70.616 -7.3470
2.445840 70.744 -7.8934
2.463564 70.872 -8.4405
2.481416 70.999 -8.9886
2.499397 71.126 -9.5376
2.517509 71.253 -10.0877
2.535752 71.379 -10.6392
2.554127 71.504 -11.1925
2.572635 71.630 -11.7479
2.591277 71.754 -12.3058
2.610055 71.878 -12.8662
2.628968 72.001 -13.4293
2.648019 72.124 -13.9949
2.667208 72.246 -14.5626
2.686535 72.367 -15.1322
2.706003 72.487 -15.7033
2.725612 72.607 -16.2755
2.745363 72.726 -16.8485
2.765257 72.844 -17.4219
2.785295 72.962 -17.9955
2.805478 73.080 -18.5689
2.825808 73.196 -19.1420
2.846285 73.313 -19.7147
2.866910 73.429 -20.2869
2.887685 73.545 -20.8588
2.908611 73.660 -21.4306
2.929688 73.775 -22.0028
2.950917 73.889 -22.5758
2.972301 74.002 -23.1501
2.993839 74.115 -23.7260
3.015534 74.227 -24.3034
3.037386 74.338 -24.8822
3.059396 74.449 -25.4621
3.081565 74.559 -26.0427
3.103896 74.668 -26.6237
3.126388 74.776 -27.2046
3.149043 74.884 -27.7850
3.171862 74.992 -28.3646
3.194847 75.099 -28.9431
3.217998 75.206 -29.5203
3.241317 75.312 -30.0962
3.264805 75.418 -30.6707
3.288463 75.523 -31.2442
3.312293 75.628 -31.8171
3.336295 75.732 -32.3898
3.360471 75.836 -32.9628
3.384822 75.939 -33.5360
3.409350 76.042 -34.1096
3.434056 76.143 -34.6834
3.458940 76.245 -35.2571
3.484005 76.345 -35.8303
3.509252 76.445 -36.4029
3.534681 76.545 -36.9744
3.560295 76.644 -37.5446
3.586094 76.743 -38.1134
3.612081 76.842 -38.6807
3.638255 76.940 -39.2465
3.664620 77.038 -39.8110
3.691175 77.135 -40.3747
3.717923 77.232 -40.9377
3.744864 77.329 -41.5004
3.772001 77.425 -42.0627
3.799335 77.520 -42.6248
3.826866 77.615 -43.1864
3.854597 77.710 -43.7474
3.882529 77.804 -44.3077
3.910664 77.898 -44.8670
3.939002 77.992 -45.4253
3.967546 78.085 -45.9825
3.996296 78.178 -46.5386
4.025255 78.271 -47.0937
4.054423 78.363 -47.6480
4.083804 78.455 -48.2017
4.113396 78.547 -48.7550
4.143204 78.638 -49.3080
4.173227 78.729 -49.8608
4.203468 78.820 -50.4132
4.233928 78.910 -50.9654
4.264609 79.000 -51.5171
4.295512 79.090 -52.0685
4.326639 79.179 -52.6194
4.357992 79.268 -53.1700
4.389572 79.357 -53.7204
4.421380 79.446 -54.2707
4.453419 79.534 -54.8211
4.485691 79.622 -55.3717
4.518196 79.709 -55.9225
4.550936 79.796 -56.4735
4.583914 79.883 -57.0247
4.617131 79.969 -57.5761
4.650589 80.055 -58.1275
4.684289 80.141 -58.6790
4.718233 80.227 -59.2307
4.752424 80.312 -59.7826
4.786862 80.396 -60.3350
4.821549 80.480 -60.8879
4.856488 80.564 -61.4415
4.891680 80.648 -61.9958
4.927127 80.731 -62.5506
4.962831 80.813 -63.1058
4.998794 80.895 -63.6612
5.035017 80.977 -64.2169
5.071503 81.058 -64.7726
5.108253 81.139 -65.3287
5.145270 81.219 -65.8851
5.182555 81.299 -66.4420
5.220110 81.378 -66.9996
5.257937 81.457 -67.5577
5.296038 81.535 -68.1163
5.334415 81.612 -68.6750
5.373071 81.689 -69.2338
5.412006 81.766 -69.7924
5.451224 81.842 -70.3507
5.490725 81.918 -70.9088
5.530514 81.992 -71.4669
5.570590 82.067 -72.0250
5.610957 82.141 -72.5832
5.651616 82.214 -73.1414
5.692570 82.286 -73.6993
5.733821 82.358 -74.2569
5.775370 82.430 -74.8137
5.817221 82.501 -75.3699
5.859375 82.571 -75.9252
5.901834 82.641 -76.4799
5.944602 82.711 -77.0340
5.987679 82.779 -77.5876
6.031068 82.848 -78.1406
6.074771 82.915 -78.6929
6.118792 82.982 -79.2443
6.163131 83.049 -79.7947
6.207792 83.115 -80.3441
6.252776 83.181 -80.8926
6.298086 83.246 -81.4401
6.343725 83.311 -81.9868
6.389694 83.375 -82.5328
6.435996 83.439 -83.0779
6.482634 83.502 -83.6221
6.529610 83.565 -84.1655
6.576926 83.628 -84.7079
6.624585 83.690 -85.2495
6.672590 83.751 -85.7903
6.720942 83.812 -86.3304
6.769645 83.873 -86.8699
6.818700 83.933 -87.4087
6.868111 83.993 -87.9469
6.917881 84.053 -88.4844
6.968010 84.112 -89.0213
7.018504 84.170 -89.5576
7.069362 84.229 -90.0936
7.120590 84.286 -90.6290
7.172189 84.344 -91.1640
7.224161 84.400 -91.6986
7.276511 84.457 -92.2327
7.329239 84.513 -92.7663
7.382350 84.568 -93.2995
7.435845 84.624 -93.8323
7.489729 84.678 -94.3647
7.544002 84.733 -94.8968
7.598669 84.786 -95.4284
7.653732 84.840 -95.9596
7.709194 84.893 -96.4902
7.765058 84.945 -97.0204
7.821327 84.997 -97.5503
7.878004 85.049 -98.0797
7.935091 85.100 -98.6087
7.992592 85.151 -99.1373
8.050510 85.201 -99.6655
8.108847 85.251 -100.1933
8.167607 85.301 -100.7208
8.226793 85.350 -101.2480
8.286408 85.399 -101.7750
8.346454 85.448 -102.3019
8.406936 85.496 -102.8288
8.467856 85.543 -103.3556
8.529218 85.591 -103.8826
8.591024 85.638 -104.4097
8.653278 85.684 -104.9371
8.715983 85.731 -105.4650
8.779143 85.776 -105.9933
8.842760 85.822 -106.5221
8.906839 85.867 -107.0516
8.971381 85.911 -107.5817
9.036392 85.955 -108.1125
9.101873 85.999 -108.6440
9.167829 86.041 -109.1762
9.234263 86.084 -109.7090
9.301178 86.125 -110.2423
9.368578 86.166 -110.7761
9.436467 86.207 -111.3100
9.504847 86.247 -111.8440
9.573723 86.286 -112.3778
9.643099 86.324 -112.9112
9.712976 86.361 -113.4439
9.783361 86.398 -113.9756
9.854255 86.434 -114.5058
9.925663 86.469 -115.0343
9.997588 86.504 -115.5608
10.070035 86.537 -116.0849
10.143007 86.571 -116.6063
10.216507 86.603 -117.1247
10.290540 86.635 -117.6398
10.365109 86.666 -118.1514
10.440219 86.697 -118.6595
10.515873 86.728 -119.1638
10.592076 86.758 -119.6646
10.668830 86.789 -120.1616
10.746141 86.819 -120.6552
10.824012 86.848 -121.1455
10.902447 86.878 -121.6330
10.981451 86.908 -122.1179
11.061027 86.938 -122.6008
11.141180 86.968 -123.0820
11.221913 86.999 -123.5621
11.303232 87.029 -124.0417
11.385140 87.059 -124.5213
11.467641 87.090 -125.0015
11.550741 87.120 -125.4827
11.634442 87.151 -125.9653
11.718750 87.181 -126.4497
11.803669 87.211 -126.9360
11.889203 87.241 -127.4244
11.975357 87.270 -127.9149
12.062136 87.299 -128.4072
12.149543 87.327 -128.9013
12.237583 87.354 -129.3966
12.326262 87.380 -129.8927
12.415583 87.406 -130.3889
12.505552 87.430 -130.8847
12.596172 87.454 -131.3794
12.687449 87.477 -131.8722
12.779387 87.498 -132.3624
12.871992 87.519 -132.8494
12.965268 87.540 -133.3327
13.059220 87.559 -133.8117
13.153852 87.578 -134.2863
13.249170 87.596 -134.7561
13.345179 87.614 -135.2213
13.441884 87.632 -135.6819
13.539289 87.650 -136.1384
13.637401 87.668 -136.5911
13.736223 87.685 -137.0407
13.835761 87.703 -137.4878
13.936021 87.721 -137.9332
14.037007 87.739 -138.3775
14.138725 87.756 -138.8215
14.241180 87.774 -139.2658
14.344377 87.792 -139.7109
14.448323 87.810 -140.1571
14.553021 87.827 -140.6045
14.658478 87.843 -141.0532
14.764700 87.859 -141.5031
14.871691 87.875 -141.9536
14.979457 87.890 -142.4044
15.088005 87.904 -142.8549
15.197339 87.917 -143.3045
15.307465 87.930 -143.7526
15.418389 87.941 -144.1986
15.530117 87.953 -144.6422
15.642655 87.964 -145.0830
15.756008 87.974 -145.5210
15.870182 87.984 -145.9564
15.985184 87.994 -146.3895
16.101019 88.004 -146.8207
16.217694 88.013 -147.2507
16.335214 88.023 -147.6804
16.453586 88.033 -148.1103
16.572815 88.042 -148.5412
16.692909 88.051 -148.9735
16.813872 88.060 -149.4076
16.935713 88.069 -149.8435
17.058436 88.077 -150.2810
17.182048 88.084 -150.7196
17.306556 88.090 -151.1585
17.431967 88.095 -151.5968
17.558286 88.100 -152.0335
17.685521 88.103 -152.4673
17.813677 88.106 -152.8976
17.942762 88.108 -153.3233
18.072783 88.110 -153.7442
18.203746 88.112 -154.1601
18.335658 88.113 -154.5712
18.468526 88.115 -154.9782
18.602356 88.116 -155.3818
18.737156 88.119 -155.7830
18.872934 88.121 -156.1828
19.009695 88.123 -156.5819
19.147447 88.126 -156.9809
19.286197 88.128 -157.3797
19.425953 88.130 -157.7781
19.566721 88.132 -158.1752
19.708510 88.133 -158.5700
19.851326 88.134 -158.9613
19.995177 88.134 -159.3479
20.140070 88.134 -159.7292
20.286013 88.135 -160.1051
20.433014 88.137 -160.4763
20.581080 88.139 -160.8444
20.730219 88.142 -161.2121
20.880439 88.147 -161.5825
21.031747 88.153 -161.9591
21.184152 88.159 -162.3455
21.337661 88.166 -162.7443
21.492282 88.173 -163.1572
21.648024 88.178 -163.5841
21.804895 88.180 -164.0233
21.962902 88.180 -164.4711
22.122054 88.176 -164.9222
22.282360 88.168 -165.3705
22.443827 88.157 -165.8093
22.606464 88.143 -166.2325
22.770280 88.126 -166.6352
22.935283 88.108 -167.0148
23.101481 88.090 -167.3713
23.268884 88.073 -167.7073
23.437500 88.058 -168.0280
23.607338 88.046 -168.3404
23.778406 88.037 -168.6521
23.950714 88.030 -168.9703
24.124271 88.024 -169.3002
24.299086 88.018 -169.6446
24.475167 88.012 -170.0033
24.652524 88.004 -170.3731
24.831166 87.994 -170.7488
25.011103 87.981 -171.1242
25.192344 87.966 -171.4933
25.374898 87.949 -171.8517
25.558775 87.932 -172.1980
25.743984 87.916 -172.5333
25.930536 87.901 -172.8620
26.118439 87.889 -173.1902
26.307704 87.878 -173.5243
26.498341 87.868 -173.8700
26.690359 87.858 -174.2300
26.883768 87.847 -174.6037
27.078579 87.833 -174.9870
27.274801 87.817 -175.3729
27.472446 87.797 -175.7528
27.671522 87.776 -176.1187
27.872042 87.752 -176.4643
28.074014 87.729 -176.7872
28.277450 87.707 -177.0891
28.482360 87.688 -177.3753
28.688755 87.673 -177.6539
28.896645 87.661 -177.9340
29.106042 87.651 -178.2230
29.316957 87.643 -178.5259
29.529400 87.636 -178.8436
29.743382 87.627 -179.1735
29.958915 87.616 -179.5103
30.176009 87.604 -179.8473
30.394677 87.589 179.8214
30.614929 87.573 179.4999
30.836778 87.557 179.1899
31.060234 87.541 178.8900
31.285309 87.526 178.5973
31.512015 87.512 178.3079
31.740364 87.498 178.0185
31.970368 87.484 177.7272
32.202039 87.469 177.4336
32.435388 87.454 177.1390
32.670428 87.438 176.8455
32.907171 87.420 176.5549
33.145630 87.402 176.2686
33.385817 87.383 175.9867
33.627745 87.364 175.7086
33.871425 87.345 175.4324
34.116871 87.326 175.1565
34.364096 87.307 174.8793
34.613113 87.287 174.5999
34.863934 87.266 174.3180
35.116572 87.245 174.0342
35.371041 87.223 173.7493
35.627354 87.201 173.4642
35.885525 87.177 173.1800
36.145566 87.153 172.8975
36.407492 87.128 172.6176
36.671316 87.102 172.3407
36.937051 87.077 172.0674
37.204712 87.051 171.7980
37.474313 87.025 171.5323
37.745867 86.999 171.2703
38.019389 86.974 171.0111
38.294893 86.949 170.7540
38.572394 86.925 170.4979
38.851905 86.900 170.2419
39.133442 86.876 169.9854
39.417019 86.852 169.7283
39.702651 86.827 169.4715
39.990353 86.802 169.2166
40.280140 86.776 168.9656
40.572026 86.749 168.7204
40.866028 86.723 168.4820
41.162160 86.696 168.2504
41.460438 86.670 168.0242
41.760877 86.644 167.8008
42.063494 86.619 167.5778
42.368303 86.594 167.3530
42.675322 86.569 167.1260
42.984565 86.543 166.8980
43.296048 86.516 166.6710
43.609789 86.489 166.4475
43.925804 86.462 166.2285
44.244108 86.435 166.0135
44.564719 86.408 165.7997
44.887654 86.382 165.5838
45.212928 86.356 165.3627
45.540560 86.330 165.1351
45.870565 86.303 164.9027
46.202962 86.274 164.6692
46.537768 86.243 164.4396
46.875000 86.211 164.2185
47.214676 86.179 164.0083
47.556813 86.147 163.8087
47.901429 86.115 163.6171
48.248542 86.085 163.4292
48.598171 86.055 163.2411
48.950334 86.025 163.0501
49.305048 85.996 162.8558
49.662333 85.965 162.6595
50.022206 85.933 162.4640
50.384688 85.901 162.2723
50.749796 85.868 162.0862
51.117550 85.835 161.9058
51.487969 85.802 161.7297
51.861072 85.769 161.5560
52.236879 85.737 161.3827
52.615409 85.704 161.2095
52.996681 85.672 161.0369
53.380717 85.639 160.8661
53.767536 85.607 160.6978
54.157158 85.575 160.5313
54.549603 85.543 160.3652
54.944892 85.512 160.1978
55.343045 85.481 160.0284
55.744084 85.450 159.8577
56.148028 85.418 159.6873
56.554900 85.386 159.5184
56.964720 85.354 159.3519
57.377510 85.321 159.1873
57.793291 85.289 159.0242
58.212085 85.255 158.8626
58.633914 85.222 158.7029
59.058799 85.188 158.5458
59.486764 85.153 158.3915
59.917829 85.118 158.2400
60.352019 85.082 158.0916
60.789354 85.046 157.9474
61.229859 85.011 157.8080
61.673556 84.975 157.6734
62.120468 84.940 157.5418
62.570618 84.907 157.4109
63.024031 84.873 157.2788
63.480729 84.841 157.1449
63.940736 84.809 157.0092
64.404077 84.777 156.8716
64.870776 84.746 156.7324
65.340856 84.716 156.5919
65.814343 84.685 156.4506
66.291261 84.655 156.3073
66.771635 84.625 156.1586
67.255489 84.595 156.0015
67.742850 84.564 155.8372
68.233743 84.529 155.6739
68.728193 84.492 155.5228
69.226226 84.453 155.3910
69.727867 84.415 155.2773
70.233144 84.377 155.1746
70.742083 84.340 155.0774
71.254709 84.302 154.9860
71.771050 84.264 154.9037
72.291132 84.227 154.8322
72.814984 84.191 154.7685
73.342631 84.156 154.7084
73.874102 84.121 154.6494
74.409424 84.088 154.5902
74.948626 84.055 154.5287
75.491734 84.023 154.4612
76.038779 83.991 154.3848
76.589787 83.959 154.2993
77.144788 83.925 154.2072
77.703811 83.890 154.1122
78.266885 83.855 154.0176
78.834039 83.818 153.9254
79.405303 83.781 153.8369
79.980706 83.744 153.7518
80.560280 83.708 153.6697
81.144053 83.671 153.5902
81.732056 83.635 153.5130
82.324320 83.599 153.4382
82.920876 83.563 153.3655
83.521755 83.528 153.2948
84.126988 83.493 153.2264
84.736607 83.458 153.1615
85.350643 83.423 153.1010
85.969129 83.387 153.0456
86.592097 83.352 152.9947
87.219579 83.317 152.9482
87.851608 83.282 152.9061
88.488217 83.247 152.8681
89.129439 83.213 152.8318
89.775308 83.180 152.7929
90.425856 83.147 152.7474
91.081119 83.114 152.6929
91.741131 83.080 152.6309
92.405925 83.045 152.5659
93.075536 83.009 152.5031
93.750000 82.972 152.4452
94.429351 82.936 152.3919
95.113625 82.900 152.3414
95.802858 82.865 152.2924
