* Measurement data measured by REW V5.31.3
* Source: Headset (CX31993 HIFI AUDIO), MICROPHONE (Master Volume), R, volume: 0.400
* Format: 256k Log Swept Sine, 1 sweep at -11.9 dBFS with no timing reference
* Dated: 05 26, 25 6:12:16 PM
* REW Settings:
*  C-weighting compensation: Off
*  Target level: 75.0 dB
* Note: ; 
* Measurement: Final A5000 2HDF 500 R
* Smoothing: 1/12 octave
* Frequency Step: 96 ppo
* Start Frequency: 0.36621094 Hz
*
* Freq(Hz) SPL(dB) Phase(degrees)
0.366211 48.650 14.3690
0.368865 48.657 14.4104
0.371538 48.667 14.4721
0.374230 48.679 14.5491
0.376942 48.693 14.6369
0.379673 48.708 14.7324
0.382424 48.724 14.8336
0.385196 48.740 14.9392
0.387987 48.756 15.0483
0.390798 48.773 15.1607
0.393630 48.789 15.2761
0.396483 48.806 15.3944
0.399356 48.823 15.5156
0.402250 48.840 15.6397
0.405165 48.857 15.7666
0.408101 48.875 15.8964
0.411058 48.892 16.0292
0.414037 48.910 16.1649
0.417037 48.927 16.3036
0.420059 48.945 16.4452
0.423103 48.963 16.5898
0.426169 48.981 16.7375
0.429257 49.000 16.8881
0.432368 49.018 17.0419
0.435501 49.036 17.1986
0.438656 49.055 17.3585
0.441835 49.074 17.5215
0.445037 49.093 17.6875
0.448262 49.112 17.8567
0.451510 49.131 18.0290
0.454782 49.150 18.2044
0.458077 49.170 18.3829
0.461397 49.189 18.5646
0.464740 49.209 18.7494
0.468108 49.229 18.9373
0.471500 49.249 19.1284
0.474917 49.269 19.3225
0.478358 49.290 19.5198
0.481825 49.310 19.7202
0.485316 49.331 19.9236
0.488833 49.351 20.1301
0.492375 49.372 20.3396
0.495943 49.393 20.5522
0.499537 49.415 20.7678
0.503157 49.436 20.9863
0.506803 49.457 21.2077
0.510475 49.479 21.4320
0.514175 49.501 21.6592
0.517900 49.523 21.8891
0.521653 49.545 22.1219
0.525434 49.567 22.3573
0.529241 49.590 22.5953
0.533076 49.613 22.8359
0.536939 49.635 23.0791
0.540830 49.658 23.3246
0.544749 49.681 23.5726
0.548696 49.705 23.8228
0.552673 49.728 24.0752
0.556677 49.752 24.3297
0.560711 49.776 24.5862
0.564774 49.800 24.8446
0.568867 49.824 25.1049
0.572989 49.848 25.3668
0.577141 49.873 25.6303
0.581324 49.897 25.8952
0.585536 49.922 26.1615
0.589779 49.947 26.4289
0.594053 49.973 26.6974
0.598358 49.998 26.9668
0.602694 50.024 27.2370
0.607061 50.049 27.5077
0.611460 50.075 27.7789
0.615891 50.101 28.0504
0.620354 50.128 28.3220
0.624849 50.154 28.5935
0.629377 50.181 28.8648
0.633938 50.208 29.1356
0.638532 50.235 29.4058
0.643159 50.262 29.6752
0.647819 50.290 29.9435
0.652514 50.318 30.2107
0.657242 50.346 30.4764
0.662005 50.374 30.7405
0.666802 50.402 31.0027
0.671634 50.431 31.2628
0.676501 50.459 31.5207
0.681403 50.488 31.7761
0.686341 50.518 32.0287
0.691314 50.547 32.2784
0.696324 50.577 32.5250
0.701370 50.607 32.7683
0.706452 50.638 33.0082
0.711571 50.670 33.2446
0.716728 50.703 33.4776
0.721921 50.738 33.7075
0.727153 50.775 33.9349
0.732422 50.817 34.1605
0.737729 50.862 34.3852
0.743075 50.911 34.6100
0.748460 50.964 34.8357
0.753883 51.019 35.0627
0.759346 51.077 35.2912
0.764849 51.136 35.5212
0.770391 51.198 35.7526
0.775974 51.262 35.9851
0.781597 51.327 36.2186
0.787261 51.393 36.4526
0.792966 51.462 36.6870
0.798712 51.532 36.9213
0.804500 51.603 37.1553
0.810329 51.676 37.3886
0.816201 51.751 37.6210
0.822116 51.827 37.8520
0.828073 51.904 38.0813
0.834074 51.983 38.3087
0.840118 52.064 38.5338
0.846206 52.146 38.7562
0.852338 52.229 38.9756
0.858514 52.314 39.1917
0.864735 52.400 39.4042
0.871001 52.488 39.6128
0.877313 52.577 39.8171
0.883670 52.667 40.0168
0.890074 52.758 40.2115
0.896524 52.851 40.4011
0.903020 52.945 40.5851
0.909564 53.040 40.7632
0.916155 53.136 40.9352
0.922794 53.233 41.1008
0.929481 53.331 41.2596
0.936216 53.430 41.4114
0.943000 53.530 41.5558
0.949834 53.631 41.6926
0.956717 53.733 41.8215
0.963649 53.836 41.9422
0.970632 53.939 42.0545
0.977666 54.043 42.1580
0.984750 54.148 42.2525
0.991886 54.253 42.3378
0.999074 54.358 42.4135
1.006314 54.464 42.4795
1.013606 54.571 42.5353
1.020951 54.677 42.5810
1.028349 54.784 42.6160
1.035801 54.890 42.6404
1.043307 54.997 42.6537
1.050867 55.103 42.6560
1.058482 55.209 42.6470
1.066152 55.315 42.6267
1.073878 55.421 42.5952
1.081660 55.527 42.5529
1.089498 55.632 42.5004
1.097393 55.737 42.4386
1.105345 55.843 42.3686
1.113355 55.948 42.2918
1.121423 56.055 42.2090
1.129549 56.161 42.1211
1.137734 56.269 42.0285
1.145979 56.377 41.9314
1.154283 56.486 41.8301
1.162647 56.596 41.7244
1.171072 56.706 41.6144
1.179558 56.817 41.4999
1.188106 56.929 41.3810
1.196715 57.042 41.2574
1.205387 57.155 41.1292
1.214122 57.269 40.9961
1.222920 57.384 40.8581
1.231782 57.499 40.7151
1.240708 57.615 40.5670
1.249699 57.731 40.4136
1.258754 57.848 40.2548
1.267876 57.966 40.0906
1.277063 58.083 39.9207
1.286318 58.202 39.7452
1.295639 58.320 39.5638
1.305027 58.439 39.3764
1.314484 58.559 39.1829
1.324009 58.678 38.9831
1.333604 58.798 38.7769
1.343268 58.918 38.5642
1.353002 59.039 38.3448
1.362806 59.159 38.1185
1.372681 59.279 37.8853
1.382628 59.400 37.6449
1.392647 59.520 37.3971
1.402739 59.641 37.1419
1.412904 59.761 36.8791
1.423142 59.881 36.6087
1.433455 60.001 36.3306
1.443843 60.121 36.0451
1.454305 60.240 35.7524
1.464844 60.359 35.4531
1.475459 60.478 35.1478
1.486150 60.597 34.8372
1.496920 60.716 34.5219
1.507767 60.834 34.2023
1.518693 60.953 33.8786
1.529698 61.071 33.5511
1.540783 61.189 33.2197
1.551948 61.307 32.8846
1.563194 61.425 32.5456
1.574521 61.543 32.2027
1.585931 61.661 31.8558
1.597423 61.779 31.5049
1.608999 61.896 31.1498
1.620658 62.014 30.7904
1.632402 62.131 30.4266
1.644232 62.248 30.0583
1.656146 62.365 29.6852
1.668147 62.482 29.3073
1.680235 62.599 28.9244
1.692411 62.716 28.5363
1.704675 62.833 28.1428
1.717028 62.950 27.7437
1.729470 63.066 27.3387
1.742003 63.183 26.9278
1.754626 63.299 26.5105
1.767341 63.416 26.0867
1.780147 63.532 25.6562
1.793047 63.648 25.2187
1.806040 63.764 24.7741
1.819128 63.880 24.3221
1.832310 63.996 23.8629
1.845587 64.111 23.3964
1.858961 64.226 22.9229
1.872432 64.341 22.4428
1.886001 64.455 21.9563
1.899667 64.569 21.4639
1.913433 64.683 20.9661
1.927299 64.796 20.4632
1.941265 64.909 19.9557
1.955332 65.021 19.4438
1.969501 65.133 18.9280
1.983773 65.244 18.4086
1.998148 65.355 17.8859
2.012627 65.466 17.3602
2.027212 65.576 16.8316
2.041902 65.687 16.3004
2.056698 65.796 15.7669
2.071602 65.906 15.2310
2.086614 66.015 14.6930
2.101734 66.124 14.1530
2.116964 66.233 13.6108
2.132304 66.342 13.0665
2.147756 66.450 12.5199
2.163320 66.559 11.9708
2.178996 66.666 11.4186
2.194786 66.774 10.8630
2.210690 66.881 10.3032
2.226710 66.988 9.7389
2.242845 67.094 9.1697
2.259098 67.200 8.5957
2.275468 67.305 8.0171
2.291957 67.410 7.4342
2.308566 67.514 6.8475
2.325295 67.617 6.2575
2.342145 67.720 5.6647
2.359117 67.823 5.0696
2.376212 67.925 4.4728
2.393431 68.026 3.8747
2.410775 68.127 3.2758
2.428244 68.228 2.6765
2.445840 68.328 2.0772
2.463564 68.428 1.4781
2.481416 68.528 0.8796
2.499397 68.627 0.2818
2.517509 68.727 -0.3154
2.535752 68.826 -0.9124
2.554127 68.924 -1.5095
2.572635 69.022 -2.1076
2.591277 69.120 -2.7073
2.610055 69.217 -3.3094
2.628968 69.314 -3.9140
2.648019 69.410 -4.5213
2.667208 69.505 -5.1309
2.686535 69.600 -5.7425
2.706003 69.694 -6.3556
2.725612 69.787 -6.9697
2.745363 69.881 -7.5842
2.765257 69.973 -8.1985
2.785295 70.066 -8.8120
2.805478 70.158 -9.4242
2.825808 70.250 -10.0346
2.846285 70.341 -10.6429
2.866910 70.433 -11.2487
2.887685 70.524 -11.8519
2.908611 70.615 -12.4528
2.929688 70.706 -13.0517
2.950917 70.796 -13.6493
2.972301 70.886 -14.2462
2.993839 70.976 -14.8428
3.015534 71.065 -15.4394
3.037386 71.154 -16.0360
3.059396 71.242 -16.6324
3.081565 71.330 -17.2284
3.103896 71.417 -17.8236
3.126388 71.505 -18.4176
3.149043 71.592 -19.0100
3.171862 71.679 -19.6004
3.194847 71.766 -20.1884
3.217998 71.853 -20.7737
3.241317 71.940 -21.3559
3.264805 72.027 -21.9351
3.288463 72.114 -22.5112
3.312293 72.201 -23.0844
3.336295 72.288 -23.6551
3.360471 72.375 -24.2237
3.384822 72.462 -24.7903
3.409350 72.549 -25.3553
3.434056 72.635 -25.9187
3.458940 72.722 -26.4807
3.484005 72.808 -27.0412
3.509252 72.895 -27.6004
3.534681 72.981 -28.1580
3.560295 73.068 -28.7143
3.586094 73.155 -29.2689
3.612081 73.243 -29.8220
3.638255 73.330 -30.3733
3.664620 73.418 -30.9230
3.691175 73.507 -31.4708
3.717923 73.595 -32.0170
3.744864 73.684 -32.5616
3.772001 73.772 -33.1049
3.799335 73.861 -33.6471
3.826866 73.951 -34.1885
3.854597 74.040 -34.7295
3.882529 74.130 -35.2703
3.910664 74.220 -35.8113
3.939002 74.310 -36.3528
3.967546 74.400 -36.8948
3.996296 74.491 -37.4376
4.025255 74.582 -37.9812
4.054423 74.673 -38.5254
4.083804 74.765 -39.0702
4.113396 74.857 -39.6156
4.143204 74.949 -40.1616
4.173227 75.041 -40.7085
4.203468 75.134 -41.2563
4.233928 75.226 -41.8055
4.264609 75.319 -42.3563
4.295512 75.412 -42.9091
4.326639 75.504 -43.4642
4.357992 75.597 -44.0218
4.389572 75.690 -44.5821
4.421380 75.783 -45.1452
4.453419 75.876 -45.7112
4.485691 75.968 -46.2798
4.518196 76.061 -46.8508
4.550936 76.154 -47.4243
4.583914 76.246 -48.0000
4.617131 76.338 -48.5777
4.650589 76.430 -49.1576
4.684289 76.521 -49.7396
4.718233 76.612 -50.3239
4.752424 76.703 -50.9108
4.786862 76.793 -51.5005
4.821549 76.883 -52.0930
4.856488 76.972 -52.6884
4.891680 77.061 -53.2862
4.927127 77.149 -53.8861
4.962831 77.236 -54.4874
4.998794 77.323 -55.0896
5.035017 77.409 -55.6923
5.071503 77.495 -56.2953
5.108253 77.579 -56.8986
5.145270 77.663 -57.5024
5.182555 77.746 -58.1069
5.220110 77.828 -58.7122
5.257937 77.909 -59.3180
5.296038 77.990 -59.9236
5.334415 78.070 -60.5285
5.373071 78.148 -61.1318
5.412006 78.226 -61.7328
5.451224 78.304 -62.3312
5.490725 78.380 -62.9268
5.530514 78.455 -63.5198
5.570590 78.530 -64.1103
5.610957 78.604 -64.6983
5.651616 78.677 -65.2834
5.692570 78.749 -65.8653
5.733821 78.821 -66.4434
5.775370 78.892 -67.0169
5.817221 78.962 -67.5854
5.859375 79.032 -68.1488
5.901834 79.101 -68.7069
5.944602 79.170 -69.2601
5.987679 79.239 -69.8084
6.031068 79.306 -70.3518
6.074771 79.374 -70.8903
6.118792 79.441 -71.4237
6.163131 79.509 -71.9517
6.207792 79.576 -72.4744
6.252776 79.643 -72.9915
6.298086 79.710 -73.5034
6.343725 79.777 -74.0102
6.389694 79.844 -74.5123
6.435996 79.911 -75.0101
6.482634 79.979 -75.5041
6.529610 80.046 -75.9945
6.576926 80.114 -76.4815
6.624585 80.182 -76.9653
6.672590 80.251 -77.4462
6.720942 80.320 -77.9245
6.769645 80.389 -78.4008
6.818700 80.459 -78.8757
6.868111 80.529 -79.3498
6.917881 80.600 -79.8238
6.968010 80.670 -80.2979
7.018504 80.741 -80.7726
7.069362 80.813 -81.2479
7.120590 80.885 -81.7244
7.172189 80.956 -82.2025
7.224161 81.028 -82.6826
7.276511 81.101 -83.1654
7.329239 81.173 -83.6510
7.382350 81.245 -84.1399
7.435845 81.317 -84.6321
7.489729 81.389 -85.1276
7.544002 81.461 -85.6265
7.598669 81.532 -86.1289
7.653732 81.603 -86.6350
7.709194 81.673 -87.1448
7.765058 81.743 -87.6584
7.821327 81.812 -88.1755
7.878004 81.881 -88.6960
7.935091 81.949 -89.2193
7.992592 82.016 -89.7453
8.050510 82.082 -90.2737
8.108847 82.147 -90.8043
8.167607 82.211 -91.3368
8.226793 82.274 -91.8708
8.286408 82.336 -92.4057
8.346454 82.397 -92.9411
8.406936 82.457 -93.4762
8.467856 82.515 -94.0109
8.529218 82.573 -94.5447
8.591024 82.629 -95.0774
8.653278 82.685 -95.6082
8.715983 82.739 -96.1367
8.779143 82.793 -96.6625
8.842760 82.845 -97.1850
8.906839 82.897 -97.7042
8.971381 82.948 -98.2197
9.036392 82.997 -98.7313
9.101873 83.047 -99.2387
9.167829 83.095 -99.7417
9.234263 83.143 -100.2401
9.301178 83.191 -100.7340
9.368578 83.238 -101.2234
9.436467 83.285 -101.7085
9.504847 83.332 -102.1894
9.573723 83.378 -102.6663
9.643099 83.424 -103.1393
9.712976 83.471 -103.6090
9.783361 83.517 -104.0757
9.854255 83.563 -104.5399
9.925663 83.610 -105.0020
9.997588 83.657 -105.4626
10.070035 83.704 -105.9222
10.143007 83.751 -106.3813
10.216507 83.798 -106.8407
10.290540 83.845 -107.3007
10.365109 83.893 -107.7620
10.440219 83.940 -108.2251
10.515873 83.988 -108.6903
10.592076 84.035 -109.1581
10.668830 84.083 -109.6290
10.746141 84.130 -110.1032
10.824012 84.177 -110.5808
10.902447 84.224 -111.0619
10.981451 84.270 -111.5467
11.061027 84.316 -112.0350
11.141180 84.361 -112.5267
11.221913 84.405 -113.0216
11.303232 84.449 -113.5193
11.385140 84.492 -114.0195
11.467641 84.534 -114.5217
11.550741 84.575 -115.0255
11.634442 84.615 -115.5303
11.718750 84.654 -116.0356
11.803669 84.692 -116.5408
11.889203 84.730 -117.0454
11.975357 84.766 -117.5489
12.062136 84.802 -118.0508
12.149543 84.837 -118.5507
12.237583 84.871 -119.0483
12.326262 84.904 -119.5434
12.415583 84.938 -120.0358
12.505552 84.970 -120.5253
12.596172 85.002 -121.0122
12.687449 85.034 -121.4964
12.779387 85.066 -121.9782
12.871992 85.097 -122.4579
12.965268 85.128 -122.9359
13.059220 85.160 -123.4125
13.153852 85.191 -123.8882
13.249170 85.222 -124.3634
13.345179 85.253 -124.8387
13.441884 85.284 -125.3145
13.539289 85.315 -125.7911
13.637401 85.346 -126.2690
13.736223 85.376 -126.7483
13.835761 85.406 -127.2292
13.936021 85.436 -127.7119
14.037007 85.465 -128.1963
14.138725 85.494 -128.6823
14.241180 85.522 -129.1697
14.344377 85.549 -129.6581
14.448323 85.576 -130.1473
14.553021 85.602 -130.6367
14.658478 85.627 -131.1257
14.764700 85.651 -131.6139
14.871691 85.675 -132.1007
14.979457 85.697 -132.5854
15.088005 85.719 -133.0676
15.197339 85.740 -133.5466
15.307465 85.760 -134.0222
15.418389 85.780 -134.4940
15.530117 85.800 -134.9619
15.642655 85.819 -135.4256
15.756008 85.837 -135.8854
15.870182 85.856 -136.3416
15.985184 85.875 -136.7943
16.101019 85.893 -137.2444
16.217694 85.912 -137.6922
16.335214 85.931 -138.1386
16.453586 85.950 -138.5844
16.572815 85.968 -139.0302
16.692909 85.987 -139.4767
16.813872 86.006 -139.9244
16.935713 86.025 -140.3739
17.058436 86.043 -140.8252
17.182048 86.061 -141.2784
17.306556 86.078 -141.7331
17.431967 86.094 -142.1889
17.558286 86.110 -142.6450
17.685521 86.125 -143.1007
17.813677 86.138 -143.5549
17.942762 86.151 -144.0068
18.072783 86.164 -144.4554
18.203746 86.175 -144.8999
18.335658 86.186 -145.3399
18.468526 86.197 -145.7751
18.602356 86.208 -146.2056
18.737156 86.219 -146.6318
18.872934 86.230 -147.0545
19.009695 86.241 -147.4746
19.147447 86.253 -147.8936
19.286197 86.265 -148.3126
19.425953 86.278 -148.7332
19.566721 86.291 -149.1566
19.708510 86.305 -149.5840
19.851326 86.318 -150.0164
19.995177 86.331 -150.4543
20.140070 86.344 -150.8981
20.286013 86.357 -151.3476
20.433014 86.368 -151.8024
20.581080 86.378 -152.2619
20.730219 86.387 -152.7250
20.880439 86.395 -153.1905
21.031747 86.401 -153.6571
21.184152 86.406 -154.1232
21.337661 86.409 -154.5872
21.492282 86.411 -155.0475
21.648024 86.411 -155.5025
21.804895 86.410 -155.9509
21.962902 86.407 -156.3911
22.122054 86.404 -156.8223
22.282360 86.400 -157.2438
22.443827 86.396 -157.6551
22.606464 86.392 -158.0564
22.770280 86.387 -158.4482
22.935283 86.384 -158.8315
23.101481 86.380 -159.2075
23.268884 86.378 -159.5777
23.437500 86.377 -159.9438
23.607338 86.376 -160.3073
23.778406 86.376 -160.6697
23.950714 86.377 -161.0324
24.124271 86.378 -161.3965
24.299086 86.380 -161.7631
24.475167 86.382 -162.1328
24.652524 86.385 -162.5065
24.831166 86.387 -162.8848
25.011103 86.389 -163.2680
25.192344 86.391 -163.6565
25.374898 86.392 -164.0501
25.558775 86.392 -164.4482
25.743984 86.391 -164.8496
25.930536 86.389 -165.2525
26.118439 86.385 -165.6547
26.307704 86.379 -166.0537
26.498341 86.372 -166.4471
26.690359 86.364 -166.8334
26.883768 86.356 -167.2115
27.078579 86.347 -167.5818
27.274801 86.339 -167.9460
27.472446 86.331 -168.3064
27.671522 86.324 -168.6660
27.872042 86.317 -169.0274
28.074014 86.310 -169.3923
28.277450 86.302 -169.7608
28.482360 86.293 -170.1312
28.688755 86.283 -170.5006
28.896645 86.271 -170.8648
29.106042 86.257 -171.2196
29.316957 86.243 -171.5619
29.529400 86.229 -171.8905
29.743382 86.216 -172.2065
29.958915 86.205 -172.5136
30.176009 86.196 -172.8173
30.394677 86.189 -173.1240
30.614929 86.185 -173.4399
30.836778 86.181 -173.7694
31.060234 86.177 -174.1152
31.285309 86.172 -174.4769
31.512015 86.165 -174.8521
31.740364 86.156 -175.2368
31.970368 86.143 -175.6255
32.202039 86.128 -176.0128
32.435388 86.109 -176.3929
32.670428 86.087 -176.7608
32.907171 86.063 -177.1117
33.145630 86.038 -177.4421
33.385817 86.011 -177.7495
33.627745 85.986 -178.0339
33.871425 85.962 -178.2977
34.116871 85.941 -178.5467
34.364096 85.924 -178.7894
34.613113 85.910 -179.0359
34.863934 85.900 -179.2964
35.116572 85.892 -179.5789
35.371041 85.884 -179.8875
35.627354 85.875 179.7784
35.885525 85.864 179.4241
36.145566 85.848 179.0580
36.407492 85.830 178.6895
36.671316 85.808 178.3271
36.937051 85.784 177.9766
37.204712 85.758 177.6402
37.474313 85.733 177.3174
37.745867 85.708 177.0052
38.019389 85.684 176.6999
38.294893 85.661 176.3982
38.572394 85.639 176.0973
38.851905 85.618 175.7957
39.133442 85.597 175.4927
39.417019 85.576 175.1884
39.702651 85.554 174.8837
39.990353 85.532 174.5801
40.280140 85.510 174.2801
40.572026 85.487 173.9855
40.866028 85.463 173.6976
41.162160 85.440 173.4163
41.460438 85.417 173.1396
41.760877 85.395 172.8652
42.063494 85.372 172.5909
42.368303 85.349 172.3163
42.675322 85.324 172.0431
42.984565 85.298 171.7748
43.296048 85.271 171.5149
43.609789 85.243 171.2652
43.925804 85.215 171.0249
44.244108 85.187 170.7910
44.564719 85.160 170.5594
44.887654 85.133 170.3270
45.212928 85.106 170.0930
45.540560 85.078 169.8585
45.870565 85.049 169.6254
46.202962 85.020 169.3951
46.537768 84.991 169.1674
46.875000 84.963 168.9404
47.214676 84.935 168.7121
47.556813 84.908 168.4810
47.901429 84.881 168.2468
48.248542 84.853 168.0103
48.598171 84.826 167.7722
48.950334 84.799 167.5332
49.305048 84.771 167.2935
49.662333 84.744 167.0541
50.022206 84.716 166.8165
50.384688 84.687 166.5828
50.749796 84.658 166.3551
51.117550 84.629 166.1340
51.487969 84.600 165.9190
51.861072 84.571 165.7090
52.236879 84.542 165.5031
52.615409 84.512 165.3010
52.996681 84.483 165.1027
53.380717 84.453 164.9075
53.767536 84.423 164.7141
54.157158 84.393 164.5206
54.549603 84.362 164.3253
54.944892 84.332 164.1271
55.343045 84.300 163.9263
55.744084 84.269 163.7230
56.148028 84.236 163.5176
56.554900 84.204 163.3107
56.964720 84.171 163.1038
57.377510 84.137 162.8997
57.793291 84.104 162.7017
58.212085 84.071 162.5123
58.633914 84.039 162.3319
59.058799 84.009 162.1583
59.486764 83.981 161.9875
59.917829 83.954 161.8166
60.352019 83.927 161.6442
60.789354 83.900 161.4719
61.229859 83.872 161.3034
61.673556 83.842 161.1423
62.120468 83.812 160.9905
62.570618 83.780 160.8468
63.024031 83.748 160.7079
63.480729 83.715 160.5701
63.940736 83.680 160.4317
64.404077 83.644 160.2922
64.870776 83.607 160.1505
65.340856 83.568 160.0042
65.814343 83.528 159.8518
66.291261 83.486 159.6972
66.771635 83.444 159.5494
67.255489 83.403 159.4156
67.742850 83.366 159.2930
68.233743 83.334 159.1662
68.728193 83.309 159.0165
69.226226 83.286 158.8327
69.727867 83.264 158.6171
70.233144 83.239 158.3827
70.742083 83.211 158.1473
71.254709 83.179 157.9298
71.771050 83.144 157.7459
72.291132 83.108 157.6031
72.814984 83.072 157.4971
73.342631 83.038 157.4154
73.874102 83.006 157.3460
74.409424 82.973 157.2821
74.948626 82.941 157.2207
75.491734 82.908 157.1574
76.038779 82.874 157.0864
76.589787 82.840 157.0043
77.144788 82.804 156.9129
77.703811 82.768 156.8174
78.266885 82.732 156.7217
78.834039 82.696 156.6252
79.405303 82.663 156.5239
79.980706 82.631 156.4133
80.560280 82.601 156.2922
81.144053 82.569 156.1647
81.732056 82.537 156.0399
82.324320 82.503 155.9276
82.920876 82.468 155.8339
83.521755 82.433 155.7568
84.126988 82.400 155.6880
84.736607 82.367 155.6178
85.350643 82.333 155.5412
85.969129 82.297 155.4595
86.592097 82.260 155.3775
87.219579 82.222 155.2989
87.851608 82.184 155.2242
88.488217 82.147 155.1516
89.129439 82.110 155.0797
89.775308 82.075 155.0081
90.425856 82.041 154.9372
91.081119 82.009 154.8653
91.741131 81.977 154.7910
92.405925 81.945 154.7154
93.075536 81.912 154.6424
93.750000 81.879 154.5760
94.429351 81.845 154.5169
95.113625 81.812 154.4624
95.802858 81.779 154.4082
