* Measurement data measured by REW V5.31.3
* Source: Headset (CX31993 HIFI AUDIO), MICROPHONE (Master Volume), R, volume: 0.400
* Format: 256k Log Swept Sine, 1 sweep at -11.9 dBFS with no timing reference
* Dated: 05 26, 25 8:36:43 PM
* REW Settings:
*  C-weighting compensation: Off
*  Target level: 75.0 dB
* Note: ; 
* Measurement: Final A5000 DSP L
* Smoothing: 1/12 octave
* Frequency Step: 96 ppo
* Start Frequency: 0.36621094 Hz
*
* Freq(Hz) SPL(dB) Phase(degrees)
0.366211 49.145 -16.1332
0.368865 49.165 -16.0445
0.371538 49.194 -15.9130
0.374230 49.230 -15.7506
0.376942 49.271 -15.5673
0.379673 49.314 -15.3705
0.382424 49.359 -15.1650
0.385196 49.406 -14.9536
0.387987 49.453 -14.7382
0.390798 49.501 -14.5195
0.393630 49.549 -14.2980
0.396483 49.597 -14.0739
0.399356 49.646 -13.8473
0.402250 49.696 -13.6183
0.405165 49.745 -13.3866
0.408101 49.796 -13.1525
0.411058 49.846 -12.9156
0.414037 49.897 -12.6761
0.417037 49.948 -12.4338
0.420059 50.000 -12.1887
0.423103 50.051 -11.9406
0.426169 50.104 -11.6897
0.429257 50.156 -11.4357
0.432368 50.210 -11.1786
0.435501 50.263 -10.9184
0.438656 50.317 -10.6551
0.441835 50.371 -10.3885
0.445037 50.426 -10.1186
0.448262 50.481 -9.8454
0.451510 50.536 -9.5689
0.454782 50.592 -9.2889
0.458077 50.648 -9.0055
0.461397 50.705 -8.7186
0.464740 50.762 -8.4282
0.468108 50.819 -8.1343
0.471500 50.877 -7.8368
0.474917 50.935 -7.5358
0.478358 50.994 -7.2312
0.481825 51.053 -6.9230
0.485316 51.113 -6.6112
0.488833 51.173 -6.2959
0.492375 51.233 -5.9770
0.495943 51.294 -5.6546
0.499537 51.355 -5.3287
0.503157 51.417 -4.9994
0.506803 51.479 -4.6666
0.510475 51.542 -4.3304
0.514175 51.605 -3.9910
0.517900 51.669 -3.6483
0.521653 51.733 -3.3024
0.525434 51.797 -2.9535
0.529241 51.862 -2.6016
0.533076 51.928 -2.2469
0.536939 51.994 -1.8894
0.540830 52.060 -1.5292
0.544749 52.127 -1.1666
0.548696 52.194 -0.8016
0.552673 52.262 -0.4344
0.556677 52.330 -0.0652
0.560711 52.399 0.3059
0.564774 52.469 0.6787
0.568867 52.538 1.0529
0.572989 52.609 1.4285
0.577141 52.680 1.8051
0.581324 52.751 2.1826
0.585536 52.823 2.5608
0.589779 52.895 2.9393
0.594053 52.968 3.3181
0.598358 53.042 3.6967
0.602694 53.116 4.0750
0.607061 53.190 4.4528
0.611460 53.265 4.8297
0.615891 53.341 5.2054
0.620354 53.417 5.5799
0.624849 53.494 5.9526
0.629377 53.571 6.3234
0.633938 53.649 6.6921
0.638532 53.727 7.0582
0.643159 53.806 7.4216
0.647819 53.886 7.7820
0.652514 53.966 8.1391
0.657242 54.047 8.4926
0.662005 54.128 8.8423
0.666802 54.210 9.1880
0.671634 54.292 9.5293
0.676501 54.375 9.8660
0.681403 54.459 10.1980
0.686341 54.543 10.5249
0.691314 54.628 10.8466
0.696324 54.714 11.1628
0.701370 54.801 11.4736
0.706452 54.889 11.7787
0.711571 54.978 12.0783
0.716728 55.069 12.3725
0.721921 55.163 12.6618
0.727153 55.260 12.9469
0.732422 55.362 13.2288
0.737729 55.469 13.5087
0.743075 55.581 13.7876
0.748460 55.697 14.0663
0.753883 55.816 14.3454
0.759346 55.940 14.6247
0.764849 56.066 14.9043
0.770391 56.195 15.1837
0.775974 56.326 15.4626
0.781597 56.460 15.7406
0.787261 56.597 16.0170
0.792966 56.736 16.2916
0.798712 56.877 16.5637
0.804500 57.021 16.8330
0.810329 57.167 17.0989
0.816201 57.316 17.3610
0.822116 57.467 17.6190
0.828073 57.620 17.8723
0.834074 57.775 18.1206
0.840118 57.933 18.3635
0.846206 58.092 18.6006
0.852338 58.254 18.8316
0.858514 58.418 19.0560
0.864735 58.583 19.2736
0.871001 58.751 19.4841
0.877313 58.921 19.6870
0.883670 59.092 19.8823
0.890074 59.265 20.0694
0.896524 59.440 20.2482
0.903020 59.616 20.4185
0.909564 59.794 20.5799
0.916155 59.973 20.7323
0.922794 60.154 20.8754
0.929481 60.336 21.0091
0.936216 60.519 21.1330
0.943000 60.703 21.2471
0.949834 60.888 21.3512
0.956717 61.074 21.4450
0.963649 61.261 21.5285
0.970632 61.448 21.6015
0.977666 61.636 21.6639
0.984750 61.825 21.7156
0.991886 62.014 21.7564
0.999074 62.202 21.7863
1.006314 62.391 21.8051
1.013606 62.580 21.8128
1.020951 62.768 21.8093
1.028349 62.956 21.7945
1.035801 63.143 21.7685
1.043307 63.330 21.7313
1.050867 63.515 21.6828
1.058482 63.700 21.6234
1.066152 63.883 21.5532
1.073878 64.065 21.4728
1.081660 64.246 21.3831
1.089498 64.426 21.2853
1.097393 64.604 21.1811
1.105345 64.781 21.0726
1.113355 64.958 20.9616
1.121423 65.134 20.8497
1.129549 65.310 20.7379
1.137734 65.486 20.6266
1.145979 65.662 20.5160
1.154283 65.838 20.4058
1.162647 66.013 20.2958
1.171072 66.188 20.1857
1.179558 66.364 20.0750
1.188106 66.539 19.9633
1.196715 66.714 19.8502
1.205387 66.889 19.7353
1.214122 67.064 19.6182
1.222920 67.239 19.4985
1.231782 67.414 19.3758
1.240708 67.589 19.2498
1.249699 67.763 19.1201
1.258754 67.938 18.9864
1.267876 68.113 18.8483
1.277063 68.287 18.7055
1.286318 68.461 18.5577
1.295639 68.636 18.4046
1.305027 68.810 18.2459
1.314484 68.984 18.0813
1.324009 69.158 17.9105
1.333604 69.332 17.7332
1.343268 69.506 17.5492
1.353002 69.679 17.3582
1.362806 69.853 17.1599
1.372681 70.027 16.9542
1.382628 70.200 16.7407
1.392647 70.374 16.5193
1.402739 70.548 16.2898
1.412904 70.721 16.0521
1.423142 70.895 15.8063
1.433455 71.068 15.5526
1.443843 71.241 15.2914
1.454305 71.414 15.0238
1.464844 71.587 14.7509
1.475459 71.759 14.4741
1.486150 71.931 14.1949
1.496920 72.102 13.9144
1.507767 72.272 13.6331
1.518693 72.442 13.3516
1.529698 72.611 13.0697
1.540783 72.779 12.7874
1.551948 72.947 12.5043
1.563194 73.114 12.2202
1.574521 73.280 11.9347
1.585931 73.445 11.6475
1.597423 73.610 11.3582
1.608999 73.774 11.0663
1.620658 73.938 10.7716
1.632402 74.101 10.4737
1.644232 74.263 10.1722
1.656146 74.426 9.8666
1.668147 74.587 9.5568
1.680235 74.748 9.2423
1.692411 74.909 8.9227
1.704675 75.070 8.5977
1.717028 75.230 8.2670
1.729470 75.390 7.9302
1.742003 75.550 7.5870
1.754626 75.710 7.2371
1.767341 75.869 6.8803
1.780147 76.029 6.5164
1.793047 76.188 6.1453
1.806040 76.347 5.7671
1.819128 76.506 5.3823
1.832310 76.665 4.9915
1.845587 76.823 4.5955
1.858961 76.981 4.1951
1.872432 77.138 3.7910
1.886001 77.294 3.3840
1.899667 77.450 2.9744
1.913433 77.604 2.5625
1.927299 77.758 2.1484
1.941265 77.911 1.7322
1.955332 78.063 1.3140
1.969501 78.214 0.8937
1.983773 78.365 0.4714
1.998148 78.515 0.0470
2.012627 78.664 -0.3796
2.027212 78.813 -0.8085
2.041902 78.961 -1.2399
2.056698 79.109 -1.6738
2.071602 79.256 -2.1105
2.086614 79.402 -2.5500
2.101734 79.549 -2.9927
2.116964 79.695 -3.4388
2.132304 79.840 -3.8883
2.147756 79.986 -4.3417
2.163320 80.130 -4.7989
2.178996 80.275 -5.2603
2.194786 80.419 -5.7257
2.210690 80.563 -6.1952
2.226710 80.706 -6.6687
2.242845 80.848 -7.1457
2.259098 80.989 -7.6262
2.275468 81.129 -8.1097
2.291957 81.269 -8.5959
2.308566 81.407 -9.0845
2.325295 81.545 -9.5754
2.342145 81.682 -10.0682
2.359117 81.818 -10.5627
2.376212 81.953 -11.0588
2.393431 82.088 -11.5564
2.410775 82.222 -12.0553
2.428244 82.355 -12.5554
2.445840 82.488 -13.0567
2.463564 82.620 -13.5592
2.481416 82.752 -14.0630
2.499397 82.883 -14.5682
2.517509 83.013 -15.0748
2.535752 83.144 -15.5833
2.554127 83.273 -16.0940
2.572635 83.403 -16.6072
2.591277 83.531 -17.1232
2.610055 83.658 -17.6422
2.628968 83.785 -18.1642
2.648019 83.911 -18.6890
2.667208 84.035 -19.2164
2.686535 84.159 -19.7459
2.706003 84.282 -20.2772
2.725612 84.404 -20.8099
2.745363 84.525 -21.3437
2.765257 84.646 -21.8781
2.785295 84.766 -22.4129
2.805478 84.885 -22.9477
2.825808 85.004 -23.4824
2.846285 85.122 -24.0168
2.866910 85.239 -24.5510
2.887685 85.356 -25.0848
2.908611 85.473 -25.6188
2.929688 85.589 -26.1532
2.950917 85.704 -26.6886
2.972301 85.818 -27.2254
2.993839 85.932 -27.7640
3.015534 86.045 -28.3042
3.037386 86.156 -28.8460
3.059396 86.267 -29.3891
3.081565 86.377 -29.9332
3.103896 86.487 -30.4778
3.126388 86.595 -31.0225
3.149043 86.703 -31.5670
3.171862 86.810 -32.1108
3.194847 86.917 -32.6537
3.217998 87.023 -33.1955
3.241317 87.129 -33.7360
3.264805 87.235 -34.2754
3.288463 87.339 -34.8139
3.312293 87.444 -35.3519
3.336295 87.547 -35.8899
3.360471 87.650 -36.4283
3.384822 87.752 -36.9670
3.409350 87.854 -37.5063
3.434056 87.954 -38.0459
3.458940 88.054 -38.5856
3.484005 88.154 -39.1251
3.509252 88.252 -39.6641
3.534681 88.351 -40.2024
3.560295 88.449 -40.7396
3.586094 88.546 -41.2757
3.612081 88.643 -41.8104
3.638255 88.740 -42.3440
3.664620 88.836 -42.8765
3.691175 88.932 -43.4083
3.717923 89.028 -43.9396
3.744864 89.122 -44.4707
3.772001 89.217 -45.0016
3.799335 89.311 -45.5325
3.826866 89.404 -46.0633
3.854597 89.497 -46.5939
3.882529 89.589 -47.1241
3.910664 89.681 -47.6538
3.939002 89.773 -48.1830
3.967546 89.864 -48.7117
3.996296 89.956 -49.2398
4.025255 90.046 -49.7675
4.054423 90.137 -50.2949
4.083804 90.227 -50.8222
4.113396 90.317 -51.3495
4.143204 90.407 -51.8770
4.173227 90.496 -52.4048
4.203468 90.585 -52.9328
4.233928 90.673 -53.4611
4.264609 90.761 -53.9897
4.295512 90.849 -54.5187
4.326639 90.937 -55.0481
4.357992 91.024 -55.5780
4.389572 91.111 -56.1085
4.421380 91.197 -56.6397
4.453419 91.284 -57.1718
4.485691 91.370 -57.7049
4.518196 91.455 -58.2390
4.550936 91.541 -58.7741
4.583914 91.626 -59.3102
4.617131 91.710 -59.8472
4.650589 91.795 -60.3853
4.684289 91.878 -60.9244
4.718233 91.962 -61.4646
4.752424 92.045 -62.0060
4.786862 92.128 -62.5489
4.821549 92.210 -63.0934
4.856488 92.292 -63.6394
4.891680 92.373 -64.1870
4.927127 92.454 -64.7361
4.962831 92.534 -65.2865
4.998794 92.614 -65.8380
5.035017 92.694 -66.3906
5.071503 92.773 -66.9441
5.108253 92.851 -67.4988
5.145270 92.929 -68.0548
5.182555 93.007 -68.6121
5.220110 93.084 -69.1710
5.257937 93.160 -69.7313
5.296038 93.236 -70.2928
5.334415 93.311 -70.8552
5.373071 93.385 -71.4182
5.412006 93.459 -71.9817
5.451224 93.533 -72.5455
5.490725 93.605 -73.1097
5.530514 93.677 -73.6744
5.570590 93.749 -74.2396
5.610957 93.820 -74.8055
5.651616 93.890 -75.3718
5.692570 93.960 -75.9384
5.733821 94.029 -76.5049
5.775370 94.098 -77.0711
5.817221 94.166 -77.6367
5.859375 94.233 -78.2018
5.901834 94.300 -78.7663
5.944602 94.366 -79.3306
5.987679 94.432 -79.8945
6.031068 94.497 -80.4579
6.074771 94.562 -81.0209
6.118792 94.626 -81.5831
6.163131 94.690 -82.1443
6.207792 94.754 -82.7047
6.252776 94.817 -83.2640
6.298086 94.879 -83.8225
6.343725 94.942 -84.3803
6.389694 95.003 -84.9374
6.435996 95.065 -85.4938
6.482634 95.126 -86.0494
6.529610 95.187 -86.6044
6.576926 95.247 -87.1587
6.624585 95.307 -87.7124
6.672590 95.367 -88.2655
6.720942 95.427 -88.8182
6.769645 95.486 -89.3707
6.818700 95.545 -89.9229
6.868111 95.604 -90.4750
6.917881 95.663 -91.0270
6.968010 95.721 -91.5791
7.018504 95.779 -92.1314
7.069362 95.837 -92.6839
7.120590 95.895 -93.2367
7.172189 95.952 -93.7898
7.224161 96.009 -94.3434
7.276511 96.065 -94.8975
7.329239 96.122 -95.4522
7.382350 96.178 -96.0075
7.435845 96.233 -96.5634
7.489729 96.289 -97.1200
7.544002 96.344 -97.6773
7.598669 96.398 -98.2350
7.653732 96.452 -98.7932
7.709194 96.506 -99.3519
7.765058 96.559 -99.9111
7.821327 96.612 -100.4708
7.878004 96.664 -101.0308
7.935091 96.716 -101.5909
7.992592 96.767 -102.1510
8.050510 96.818 -102.7111
8.108847 96.868 -103.2709
8.167607 96.918 -103.8306
8.226793 96.968 -104.3899
8.286408 97.017 -104.9487
8.346454 97.065 -105.5069
8.406936 97.113 -106.0644
8.467856 97.160 -106.6210
8.529218 97.207 -107.1767
8.591024 97.254 -107.7316
8.653278 97.300 -108.2855
8.715983 97.346 -108.8383
8.779143 97.391 -109.3901
8.842760 97.436 -109.9408
8.906839 97.481 -110.4904
8.971381 97.525 -111.0391
9.036392 97.569 -111.5868
9.101873 97.613 -112.1335
9.167829 97.656 -112.6795
9.234263 97.699 -113.2246
9.301178 97.741 -113.7690
9.368578 97.783 -114.3127
9.436467 97.825 -114.8559
9.504847 97.867 -115.3986
9.573723 97.908 -115.9409
9.643099 97.949 -116.4829
9.712976 97.989 -117.0245
9.783361 98.029 -117.5657
9.854255 98.069 -118.1067
9.925663 98.108 -118.6474
9.997588 98.147 -119.1877
10.070035 98.185 -119.7277
10.143007 98.223 -120.2672
10.216507 98.260 -120.8061
10.290540 98.297 -121.3444
10.365109 98.333 -121.8820
10.440219 98.368 -122.4188
10.515873 98.403 -122.9545
10.592076 98.438 -123.4891
10.668830 98.472 -124.0225
10.746141 98.505 -124.5546
10.824012 98.538 -125.0852
10.902447 98.570 -125.6142
10.981451 98.602 -126.1416
11.061027 98.633 -126.6673
11.141180 98.664 -127.1913
11.221913 98.695 -127.7136
11.303232 98.725 -128.2342
11.385140 98.754 -128.7531
11.467641 98.783 -129.2704
11.550741 98.812 -129.7862
11.634442 98.840 -130.3005
11.718750 98.868 -130.8134
11.803669 98.896 -131.3251
11.889203 98.923 -131.8357
11.975357 98.950 -132.3453
12.062136 98.976 -132.8539
12.149543 99.002 -133.3618
12.237583 99.028 -133.8690
12.326262 99.053 -134.3755
12.415583 99.078 -134.8815
12.505552 99.102 -135.3870
12.596172 99.126 -135.8919
12.687449 99.149 -136.3965
12.779387 99.172 -136.9005
12.871992 99.195 -137.4041
12.965268 99.217 -137.9071
13.059220 99.238 -138.4097
13.153852 99.259 -138.9117
13.249170 99.280 -139.4132
13.345179 99.300 -139.9142
13.441884 99.319 -140.4146
13.539289 99.338 -140.9144
13.637401 99.357 -141.4136
13.736223 99.375 -141.9124
13.835761 99.392 -142.4106
13.936021 99.410 -142.9083
14.037007 99.426 -143.4056
14.138725 99.442 -143.9024
14.241180 99.458 -144.3987
14.344377 99.473 -144.8945
14.448323 99.488 -145.3899
14.553021 99.502 -145.8847
14.658478 99.515 -146.3789
14.764700 99.528 -146.8725
14.871691 99.541 -147.3654
14.979457 99.553 -147.8573
15.088005 99.564 -148.3484
15.197339 99.575 -148.8383
15.307465 99.586 -149.3272
15.418389 99.596 -149.8147
15.530117 99.606 -150.3009
15.642655 99.615 -150.7858
15.756008 99.624 -151.2692
15.870182 99.632 -151.7512
15.985184 99.640 -152.2318
16.101019 99.648 -152.7110
16.217694 99.655 -153.1889
16.335214 99.663 -153.6657
16.453586 99.669 -154.1414
16.572815 99.676 -154.6161
16.692909 99.682 -155.0900
16.813872 99.689 -155.5632
16.935713 99.694 -156.0357
17.058436 99.700 -156.5077
17.182048 99.705 -156.9792
17.306556 99.710 -157.4501
17.431967 99.714 -157.9206
17.558286 99.719 -158.3905
17.685521 99.722 -158.8598
17.813677 99.726 -159.3283
17.942762 99.729 -159.7960
18.072783 99.731 -160.2627
18.203746 99.733 -160.7282
18.335658 99.735 -161.1924
18.468526 99.736 -161.6551
18.602356 99.737 -162.1163
18.737156 99.738 -162.5759
18.872934 99.738 -163.0338
19.009695 99.737 -163.4900
19.147447 99.737 -163.9447
19.286197 99.736 -164.3978
19.425953 99.735 -164.8496
19.566721 99.733 -165.3001
19.708510 99.732 -165.7497
19.851326 99.730 -166.1984
19.995177 99.727 -166.6464
20.140070 99.724 -167.0938
20.286013 99.721 -167.5406
20.433014 99.717 -167.9869
20.581080 99.713 -168.4324
20.730219 99.708 -168.8769
20.880439 99.702 -169.3203
21.031747 99.696 -169.7621
21.184152 99.690 -170.2020
21.337661 99.682 -170.6398
21.492282 99.674 -171.0752
21.648024 99.666 -171.5080
21.804895 99.657 -171.9382
21.962902 99.648 -172.3658
22.122054 99.639 -172.7912
22.282360 99.629 -173.2145
22.443827 99.619 -173.6361
22.606464 99.609 -174.0564
22.770280 99.598 -174.4758
22.935283 99.588 -174.8944
23.101481 99.576 -175.3125
23.268884 99.565 -175.7299
23.437500 99.553 -176.1467
23.607338 99.540 -176.5625
23.778406 99.527 -176.9771
23.950714 99.514 -177.3902
24.124271 99.500 -177.8017
24.299086 99.486 -178.2115
24.475167 99.472 -178.6198
24.652524 99.457 -179.0267
24.831166 99.442 -179.4326
25.011103 99.427 -179.8380
25.192344 99.412 179.7570
25.374898 99.396 179.3519
25.558775 99.380 178.9468
25.743984 99.363 178.5419
25.930536 99.346 178.1375
26.118439 99.329 177.7343
26.307704 99.310 177.3327
26.498341 99.292 176.9335
26.690359 99.272 176.5369
26.883768 99.253 176.1433
27.078579 99.233 175.7526
27.274801 99.213 175.3645
27.472446 99.192 174.9785
27.671522 99.172 174.5943
27.872042 99.151 174.2113
28.074014 99.131 173.8293
28.277450 99.109 173.4481
28.482360 99.088 173.0679
28.688755 99.066 172.6890
28.896645 99.044 172.3117
29.106042 99.021 171.9362
29.316957 98.998 171.5629
29.529400 98.974 171.1915
29.743382 98.950 170.8221
29.958915 98.926 170.4542
30.176009 98.902 170.0878
30.394677 98.877 169.7227
30.614929 98.851 169.3587
30.836778 98.826 168.9963
31.060234 98.799 168.6356
31.285309 98.772 168.2769
31.512015 98.745 167.9207
31.740364 98.717 167.5669
31.970368 98.689 167.2157
32.202039 98.661 166.8668
32.435388 98.632 166.5200
32.670428 98.603 166.1753
32.907171 98.573 165.8325
33.145630 98.544 165.4917
33.385817 98.513 165.1528
33.627745 98.483 164.8160
33.871425 98.452 164.4812
34.116871 98.421 164.1481
34.364096 98.390 163.8163
34.613113 98.359 163.4853
34.863934 98.328 163.1547
35.116572 98.296 162.8245
35.371041 98.264 162.4945
35.627354 98.231 162.1650
35.885525 98.198 161.8364
36.145566 98.164 161.5092
36.407492 98.130 161.1837
36.671316 98.096 160.8604
36.937051 98.061 160.5394
37.204712 98.025 160.2210
37.474313 97.990 159.9054
37.745867 97.954 159.5925
38.019389 97.918 159.2820
38.294893 97.881 158.9738
38.572394 97.845 158.6671
38.851905 97.809 158.3617
39.133442 97.772 158.0574
39.417019 97.735 157.7545
39.702651 97.697 157.4537
39.990353 97.659 157.1559
40.280140 97.621 156.8618
40.572026 97.582 156.5717
40.866028 97.544 156.2852
41.162160 97.505 156.0018
41.460438 97.466 155.7206
41.760877 97.426 155.4413
42.063494 97.387 155.1639
42.368303 97.347 154.8885
42.675322 97.306 154.6157
42.984565 97.265 154.3456
43.296048 97.224 154.0780
43.609789 97.182 153.8128
43.925804 97.139 153.5500
44.244108 97.096 153.2897
44.564719 97.053 153.0320
44.887654 97.008 152.7768
45.212928 96.963 152.5238
45.540560 96.918 152.2728
45.870565 96.871 152.0242
46.202962 96.824 151.7797
46.537768 96.776 151.5417
46.875000 96.728 151.3127
47.214676 96.680 151.0929
47.556813 96.633 150.8795
47.901429 96.588 150.6667
48.248542 96.545 150.4480
48.598171 96.503 150.2183
48.950334 96.460 149.9765
49.305048 96.416 149.7258
49.662333 96.371 149.4718
50.022206 96.324 149.2205
50.384688 96.276 148.9754
50.749796 96.228 148.7377
51.117550 96.180 148.5067
51.487969 96.132 148.2812
51.861072 96.083 148.0607
52.236879 96.035 147.8452
52.615409 95.986 147.6350
52.996681 95.938 147.4298
53.380717 95.889 147.2291
53.767536 95.841 147.0322
54.157158 95.792 146.8389
54.549603 95.742 146.6491
54.944892 95.693 146.4631
55.343045 95.642 146.2808
55.744084 95.592 146.1021
56.148028 95.541 145.9266
56.554900 95.489 145.7544
56.964720 95.437 145.5850
57.377510 95.385 145.4184
57.793291 95.332 145.2543
58.212085 95.279 145.0926
58.633914 95.225 144.9333
59.058799 95.172 144.7766
59.486764 95.118 144.6226
59.917829 95.064 144.4709
60.352019 95.011 144.3215
60.789354 94.957 144.1740
61.229859 94.904 144.0283
61.673556 94.850 143.8845
62.120468 94.796 143.7430
62.570618 94.743 143.6046
63.024031 94.689 143.4696
63.480729 94.635 143.3384
63.940736 94.581 143.2109
64.404077 94.526 143.0872
64.870776 94.472 142.9675
65.340856 94.417 142.8517
65.814343 94.362 142.7400
66.291261 94.307 142.6321
66.771635 94.252 142.5275
67.255489 94.196 142.4256
67.742850 94.140 142.3264
68.233743 94.084 142.2300
68.728193 94.027 142.1372
69.226226 93.969 142.0486
69.727867 93.911 141.9652
70.233144 93.853 141.8882
70.742083 93.794 141.8183
71.254709 93.737 141.7547
71.771050 93.680 141.6941
72.291132 93.624 141.6326
72.814984 93.569 141.5674
73.342631 93.514 141.4984
73.874102 93.458 141.4280
74.409424 93.402 141.3592
74.948626 93.346 141.2940
75.491734 93.289 141.2338
76.038779 93.232 141.1791
76.589787 93.175 141.1304
77.144788 93.118 141.0882
77.703811 93.061 141.0528
78.266885 93.004 141.0237
78.834039 92.947 141.0002
79.405303 92.890 140.9813
79.980706 92.833 140.9657
80.560280 92.776 140.9529
81.144053 92.719 140.9422
81.732056 92.661 140.9339
82.324320 92.603 140.9283
82.920876 92.545 140.9260
83.521755 92.487 140.9275
84.126988 92.429 140.9326
84.736607 92.371 140.9409
85.350643 92.314 140.9525
85.969129 92.257 140.9670
86.592097 92.200 140.9844
87.219579 92.143 141.0050
87.851608 92.087 141.0291
88.488217 92.031 141.0572
89.129439 91.975 141.0902
89.775308 91.918 141.1285
90.425856 91.862 141.1720
91.081119 91.806 141.2201
91.741131 91.749 141.2721
92.405925 91.693 141.3272
93.075536 91.636 141.3847
93.750000 91.580 141.4442
94.429351 91.523 141.5060
95.113625 91.466 141.5711
95.802858 91.409 141.6404
96.497085 91.353 141.7142
