* Measurement data measured by REW V5.31.3
* Source: Headset (CX31993 HIFI AUDIO), MICROPHONE (Master Volume), R, volume: 0.400
* Format: 256k Log Swept Sine, 1 sweep at -11.9 dBFS with no timing reference
* Dated: 05 26, 25 6:01:28 PM
* REW Settings:
*  C-weighting compensation: Off
*  Target level: 75.0 dB
* Note: ; 
* Measurement: Final A5000 nofilter L
* Smoothing: 1/12 octave
* Frequency Step: 96 ppo
* Start Frequency: 0.36621094 Hz
*
* Freq(Hz) SPL(dB) Phase(degrees)
0.366211 29.436 -154.0772
0.368865 29.459 -154.2640
0.371538 29.494 -154.5465
0.374230 29.537 -154.9057
0.376942 29.585 -155.3253
0.379673 29.637 -155.7934
0.382424 29.690 -156.3022
0.385196 29.746 -156.8473
0.387987 29.802 -157.4264
0.390798 29.858 -158.0387
0.393630 29.916 -158.6844
0.396483 29.973 -159.3642
0.399356 30.032 -160.0789
0.402250 30.090 -160.8298
0.405165 30.149 -161.6182
0.408101 30.209 -162.4452
0.411058 30.269 -163.3124
0.414037 30.329 -164.2212
0.417037 30.390 -165.1730
0.420059 30.451 -166.1692
0.423103 30.513 -167.2113
0.426169 30.575 -168.3009
0.429257 30.638 -169.4392
0.432368 30.701 -170.6278
0.435501 30.764 -171.8678
0.438656 30.828 -173.1608
0.441835 30.893 -174.5077
0.445037 30.957 -175.9096
0.448262 31.023 -177.3675
0.451510 31.089 -178.8820
0.454782 31.155 179.5462
0.458077 31.222 177.9171
0.461397 31.289 176.2304
0.464740 31.357 174.4868
0.468108 31.425 172.6867
0.471500 31.494 170.8312
0.474917 31.563 168.9220
0.478358 31.633 166.9608
0.481825 31.703 164.9501
0.485316 31.774 162.8927
0.488833 31.845 160.7918
0.492375 31.917 158.6513
0.495943 31.989 156.4752
0.499537 32.062 154.2681
0.503157 32.136 152.0347
0.506803 32.210 149.7803
0.510475 32.284 147.5101
0.514175 32.359 145.2294
0.517900 32.435 142.9438
0.521653 32.511 140.6585
0.525434 32.587 138.3788
0.529241 32.664 136.1097
0.533076 32.742 133.8560
0.536939 32.821 131.6219
0.540830 32.899 129.4115
0.544749 32.979 127.2285
0.548696 33.059 125.0758
0.552673 33.140 122.9564
0.556677 33.221 120.8724
0.560711 33.303 118.8257
0.564774 33.385 116.8177
0.568867 33.468 114.8495
0.572989 33.551 112.9217
0.577141 33.636 111.0348
0.581324 33.720 109.1888
0.585536 33.806 107.3836
0.589779 33.892 105.6189
0.594053 33.979 103.8940
0.598358 34.066 102.2084
0.602694 34.154 100.5612
0.607061 34.242 98.9514
0.611460 34.332 97.3782
0.615891 34.421 95.8405
0.620354 34.512 94.3372
0.624849 34.603 92.8672
0.629377 34.695 91.4294
0.633938 34.787 90.0229
0.638532 34.881 88.6465
0.643159 34.974 87.2991
0.647819 35.069 85.9798
0.652514 35.164 84.6875
0.657242 35.260 83.4214
0.662005 35.357 82.1805
0.666802 35.454 80.9639
0.671634 35.552 79.7708
0.676501 35.651 78.6005
0.681403 35.750 77.4521
0.686341 35.851 76.3251
0.691314 35.952 75.2189
0.696324 36.054 74.1330
0.701370 36.158 73.0671
0.706452 36.263 72.0213
0.711571 36.371 70.9960
0.716728 36.483 69.9922
0.721921 36.600 69.0118
0.727153 36.725 68.0577
0.732422 36.859 67.1339
0.737729 37.003 66.2446
0.743075 37.158 65.3932
0.748460 37.322 64.5822
0.753883 37.494 63.8118
0.759346 37.673 63.0814
0.764849 37.858 62.3893
0.770391 38.048 61.7333
0.775974 38.244 61.1111
0.781597 38.444 60.5200
0.787261 38.650 59.9577
0.792966 38.861 59.4218
0.798712 39.076 58.9101
0.804500 39.296 58.4204
0.810329 39.521 57.9508
0.816201 39.750 57.4994
0.822116 39.984 57.0644
0.828073 40.222 56.6441
0.834074 40.464 56.2371
0.840118 40.710 55.8419
0.846206 40.960 55.4571
0.852338 41.214 55.0815
0.858514 41.472 54.7140
0.864735 41.734 54.3532
0.871001 41.999 53.9984
0.877313 42.267 53.6484
0.883670 42.538 53.3024
0.890074 42.812 52.9594
0.896524 43.090 52.6187
0.903020 43.369 52.2796
0.909564 43.651 51.9413
0.916155 43.935 51.6031
0.922794 44.221 51.2644
0.929481 44.509 50.9247
0.936216 44.798 50.5833
0.943000 45.089 50.2397
0.949834 45.380 49.8935
0.956717 45.672 49.5441
0.963649 45.965 49.1912
0.970632 46.258 48.8342
0.977666 46.550 48.4729
0.984750 46.842 48.1068
0.991886 47.134 47.7356
0.999074 47.424 47.3590
1.006314 47.712 46.9767
1.013606 47.999 46.5883
1.020951 48.283 46.1936
1.028349 48.565 45.7924
1.035801 48.843 45.3846
1.043307 49.119 44.9698
1.050867 49.390 44.5481
1.058482 49.657 44.1195
1.066152 49.920 43.6843
1.073878 50.177 43.2430
1.081660 50.430 42.7964
1.089498 50.678 42.3462
1.097393 50.922 41.8943
1.105345 51.161 41.4431
1.113355 51.396 40.9951
1.121423 51.627 40.5522
1.129549 51.856 40.1156
1.137734 52.081 39.6859
1.145979 52.303 39.2634
1.154283 52.523 38.8478
1.162647 52.740 38.4388
1.171072 52.954 38.0361
1.179558 53.165 37.6390
1.188106 53.375 37.2472
1.196715 53.581 36.8600
1.205387 53.786 36.4769
1.214122 53.988 36.0975
1.222920 54.188 35.7211
1.231782 54.386 35.3472
1.240708 54.582 34.9755
1.249699 54.776 34.6053
1.258754 54.968 34.2361
1.267876 55.159 33.8676
1.277063 55.348 33.4992
1.286318 55.536 33.1305
1.295639 55.722 32.7610
1.305027 55.907 32.3904
1.314484 56.091 32.0181
1.324009 56.275 31.6437
1.333604 56.457 31.2669
1.343268 56.639 30.8872
1.353002 56.821 30.5042
1.362806 57.003 30.1176
1.372681 57.185 29.7269
1.382628 57.367 29.3318
1.392647 57.549 28.9319
1.402739 57.732 28.5270
1.412904 57.916 28.1169
1.423142 58.101 27.7014
1.433455 58.287 27.2808
1.443843 58.473 26.8552
1.454305 58.661 26.4257
1.464844 58.849 25.9933
1.475459 59.036 25.5593
1.486150 59.224 25.1254
1.496920 59.410 24.6923
1.507767 59.596 24.2610
1.518693 59.780 23.8317
1.529698 59.963 23.4044
1.540783 60.145 22.9790
1.551948 60.326 22.5553
1.563194 60.505 22.1329
1.574521 60.683 21.7114
1.585931 60.859 21.2905
1.597423 61.035 20.8698
1.608999 61.210 20.4489
1.620658 61.383 20.0272
1.632402 61.556 19.6046
1.644232 61.727 19.1804
1.656146 61.898 18.7545
1.668147 62.068 18.3262
1.680235 62.238 17.8953
1.692411 62.407 17.4612
1.704675 62.575 17.0237
1.717028 62.743 16.5823
1.729470 62.910 16.1366
1.742003 63.078 15.6863
1.754626 63.245 15.2309
1.767341 63.412 14.7701
1.780147 63.579 14.3039
1.793047 63.746 13.8319
1.806040 63.914 13.3542
1.819128 64.081 12.8711
1.832310 64.247 12.3831
1.845587 64.413 11.8907
1.858961 64.579 11.3951
1.872432 64.744 10.8968
1.886001 64.907 10.3964
1.899667 65.070 9.8944
1.913433 65.231 9.3912
1.927299 65.392 8.8870
1.941265 65.551 8.3818
1.955332 65.710 7.8760
1.969501 65.867 7.3694
1.983773 66.024 6.8623
1.998148 66.179 6.3544
2.012627 66.334 5.8459
2.027212 66.489 5.3367
2.041902 66.642 4.8265
2.056698 66.795 4.3155
2.071602 66.947 3.8033
2.086614 67.099 3.2898
2.101734 67.250 2.7748
2.116964 67.401 2.2582
2.132304 67.552 1.7396
2.147756 67.703 1.2188
2.163320 67.853 0.6956
2.178996 68.002 0.1697
2.194786 68.152 -0.3591
2.210690 68.300 -0.8907
2.226710 68.448 -1.4252
2.242845 68.595 -1.9624
2.259098 68.741 -2.5021
2.275468 68.886 -3.0438
2.291957 69.030 -3.5875
2.308566 69.173 -4.1327
2.325295 69.315 -4.6791
2.342145 69.457 -5.2264
2.359117 69.597 -5.7744
2.376212 69.736 -6.3229
2.393431 69.875 -6.8717
2.410775 70.013 -7.4207
2.428244 70.151 -7.9697
2.445840 70.287 -8.5187
2.463564 70.424 -9.0676
2.481416 70.559 -9.6165
2.499397 70.695 -10.1654
2.517509 70.830 -10.7146
2.535752 70.964 -11.2644
2.554127 71.098 -11.8151
2.572635 71.232 -12.3671
2.591277 71.364 -12.9208
2.610055 71.496 -13.4764
2.628968 71.627 -14.0341
2.648019 71.757 -14.5936
2.667208 71.885 -15.1547
2.686535 72.013 -15.7172
2.706003 72.141 -16.2804
2.725612 72.267 -16.8443
2.745363 72.392 -17.4083
2.765257 72.517 -17.9722
2.785295 72.641 -18.5355
2.805478 72.765 -19.0981
2.825808 72.888 -19.6598
2.846285 73.011 -20.2203
2.866910 73.133 -20.7796
2.887685 73.254 -21.3378
2.908611 73.375 -21.8951
2.929688 73.496 -22.4520
2.950917 73.616 -23.0089
2.972301 73.735 -23.5662
2.993839 73.854 -24.1241
3.015534 73.972 -24.6829
3.037386 74.089 -25.2424
3.059396 74.205 -25.8023
3.081565 74.320 -26.3624
3.103896 74.435 -26.9225
3.126388 74.549 -27.4821
3.149043 74.662 -28.0410
3.171862 74.775 -28.5989
3.194847 74.887 -29.1556
3.217998 75.000 -29.7109
3.241317 75.111 -30.2646
3.264805 75.223 -30.8171
3.288463 75.334 -31.3683
3.312293 75.444 -31.9185
3.336295 75.554 -32.4683
3.360471 75.664 -33.0177
3.384822 75.772 -33.5671
3.409350 75.881 -34.1165
3.434056 75.988 -34.6657
3.458940 76.095 -35.2148
3.484005 76.202 -35.7635
3.509252 76.308 -36.3118
3.534681 76.413 -36.8595
3.560295 76.519 -37.4065
3.586094 76.624 -37.9527
3.612081 76.728 -38.4980
3.638255 76.833 -39.0427
3.664620 76.937 -39.5867
3.691175 77.041 -40.1304
3.717923 77.144 -40.6738
3.744864 77.247 -41.2172
3.772001 77.350 -41.7606
3.799335 77.452 -42.3041
3.826866 77.554 -42.8478
3.854597 77.655 -43.3917
3.882529 77.756 -43.9357
3.910664 77.856 -44.4800
3.939002 77.957 -45.0244
3.967546 78.057 -45.5692
3.996296 78.156 -46.1144
4.025255 78.256 -46.6602
4.054423 78.355 -47.2066
4.083804 78.454 -47.7538
4.113396 78.552 -48.3020
4.143204 78.650 -48.8511
4.173227 78.747 -49.4012
4.203468 78.845 -49.9521
4.233928 78.941 -50.5040
4.264609 79.038 -51.0569
4.295512 79.133 -51.6107
4.326639 79.229 -52.1655
4.357992 79.324 -52.7217
4.389572 79.418 -53.2792
4.421380 79.512 -53.8384
4.453419 79.606 -54.3993
4.485691 79.699 -54.9620
4.518196 79.791 -55.5266
4.550936 79.883 -56.0926
4.583914 79.974 -56.6600
4.617131 80.065 -57.2284
4.650589 80.155 -57.7979
4.684289 80.245 -58.3682
4.718233 80.333 -58.9394
4.752424 80.421 -59.5118
4.786862 80.509 -60.0856
4.821549 80.595 -60.6609
4.856488 80.681 -61.2379
4.891680 80.766 -61.8163
4.927127 80.851 -62.3959
4.962831 80.934 -62.9761
4.998794 81.017 -63.5565
5.035017 81.099 -64.1368
5.071503 81.180 -64.7167
5.108253 81.260 -65.2963
5.145270 81.339 -65.8756
5.182555 81.418 -66.4551
5.220110 81.495 -67.0347
5.257937 81.572 -67.6144
5.296038 81.648 -68.1938
5.334415 81.723 -68.7723
5.373071 81.797 -69.3495
5.412006 81.870 -69.9249
5.451224 81.943 -70.4980
5.490725 82.014 -71.0690
5.530514 82.085 -71.6379
5.570590 82.155 -72.2050
5.610957 82.224 -72.7701
5.651616 82.292 -73.3334
5.692570 82.360 -73.8943
5.733821 82.427 -74.4526
5.775370 82.493 -75.0078
5.817221 82.559 -75.5598
5.859375 82.624 -76.1083
5.901834 82.688 -76.6535
5.944602 82.752 -77.1955
5.987679 82.816 -77.7344
6.031068 82.879 -78.2704
6.074771 82.941 -78.8033
6.118792 83.003 -79.3334
6.163131 83.065 -79.8604
6.207792 83.127 -80.3842
6.252776 83.188 -80.9050
6.298086 83.249 -81.4229
6.343725 83.310 -81.9381
6.389694 83.371 -82.4509
6.435996 83.432 -82.9617
6.482634 83.492 -83.4706
6.529610 83.552 -83.9779
6.576926 83.613 -84.4838
6.624585 83.673 -84.9886
6.672590 83.733 -85.4923
6.720942 83.793 -85.9951
6.769645 83.853 -86.4975
6.818700 83.913 -86.9996
6.868111 83.973 -87.5020
6.917881 84.032 -88.0048
6.968010 84.092 -88.5083
7.018504 84.151 -89.0127
7.069362 84.211 -89.5181
7.120590 84.270 -90.0245
7.172189 84.329 -90.5321
7.224161 84.387 -91.0410
7.276511 84.445 -91.5514
7.329239 84.503 -92.0632
7.382350 84.560 -92.5768
7.435845 84.617 -93.0918
7.489729 84.673 -93.6083
7.544002 84.729 -94.1261
7.598669 84.785 -94.6450
7.653732 84.839 -95.1647
7.709194 84.893 -95.6852
7.765058 84.947 -96.2065
7.821327 85.000 -96.7283
7.878004 85.052 -97.2504
7.935091 85.103 -97.7724
7.992592 85.154 -98.2941
8.050510 85.204 -98.8151
8.108847 85.254 -99.3353
8.167607 85.303 -99.8546
8.226793 85.351 -100.3729
8.286408 85.399 -100.8900
8.346454 85.446 -101.4056
8.406936 85.493 -101.9197
8.467856 85.539 -102.4321
8.529218 85.585 -102.9430
8.591024 85.631 -103.4524
8.653278 85.677 -103.9604
8.715983 85.722 -104.4672
8.779143 85.767 -104.9728
8.842760 85.811 -105.4774
8.906839 85.856 -105.9813
8.971381 85.900 -106.4847
9.036392 85.944 -106.9880
9.101873 85.988 -107.4915
9.167829 86.032 -107.9955
9.234263 86.076 -108.5001
9.301178 86.120 -109.0057
9.368578 86.163 -109.5125
9.436467 86.206 -110.0206
9.504847 86.249 -110.5304
9.573723 86.291 -111.0418
9.643099 86.333 -111.5551
9.712976 86.375 -112.0699
9.783361 86.416 -112.5863
9.854255 86.456 -113.1041
9.925663 86.495 -113.6232
9.997588 86.534 -114.1432
10.070035 86.573 -114.6638
10.143007 86.610 -115.1846
10.216507 86.647 -115.7052
10.290540 86.683 -116.2250
10.365109 86.718 -116.7437
10.440219 86.752 -117.2609
10.515873 86.785 -117.7761
10.592076 86.818 -118.2888
10.668830 86.851 -118.7987
10.746141 86.882 -119.3055
10.824012 86.913 -119.8091
10.902447 86.944 -120.3094
10.981451 86.975 -120.8062
11.061027 87.005 -121.2996
11.141180 87.035 -121.7898
11.221913 87.065 -122.2771
11.303232 87.095 -122.7617
11.385140 87.124 -123.2443
11.467641 87.154 -123.7249
11.550741 87.184 -124.2043
11.634442 87.214 -124.6829
11.718750 87.244 -125.1613
11.803669 87.274 -125.6398
11.889203 87.304 -126.1188
11.975357 87.334 -126.5988
12.062136 87.363 -127.0797
12.149543 87.392 -127.5620
12.237583 87.421 -128.0454
12.326262 87.449 -128.5298
12.415583 87.477 -129.0151
12.505552 87.504 -129.5010
12.596172 87.530 -129.9868
12.687449 87.556 -130.4724
12.779387 87.580 -130.9569
12.871992 87.605 -131.4399
12.965268 87.628 -131.9210
13.059220 87.651 -132.3997
13.153852 87.673 -132.8755
13.249170 87.694 -133.3483
13.345179 87.715 -133.8177
13.441884 87.736 -134.2840
13.539289 87.756 -134.7471
13.637401 87.776 -135.2074
13.736223 87.796 -135.6652
13.835761 87.816 -136.1210
13.936021 87.835 -136.5753
14.037007 87.855 -137.0288
14.138725 87.874 -137.4819
14.241180 87.893 -137.9351
14.344377 87.912 -138.3887
14.448323 87.930 -138.8430
14.553021 87.948 -139.2980
14.658478 87.965 -139.7535
14.764700 87.982 -140.2095
14.871691 87.997 -140.6651
14.979457 88.012 -141.1199
15.088005 88.026 -141.5731
15.197339 88.039 -142.0240
15.307465 88.051 -142.4718
15.418389 88.062 -142.9158
15.530117 88.073 -143.3556
15.642655 88.083 -143.7908
15.756008 88.093 -144.2213
15.870182 88.103 -144.6473
15.985184 88.112 -145.0694
16.101019 88.122 -145.4883
16.217694 88.132 -145.9048
16.335214 88.143 -146.3203
16.453586 88.153 -146.7358
16.572815 88.164 -147.1523
16.692909 88.175 -147.5711
16.813872 88.186 -147.9927
16.935713 88.196 -148.4177
17.058436 88.206 -148.8462
17.182048 88.216 -149.2779
17.306556 88.225 -149.7121
17.431967 88.233 -150.1480
17.558286 88.239 -150.5844
17.685521 88.245 -151.0198
17.813677 88.250 -151.4532
17.942762 88.254 -151.8834
18.072783 88.257 -152.3094
18.203746 88.260 -152.7310
18.335658 88.263 -153.1476
18.468526 88.266 -153.5599
18.602356 88.268 -153.9685
18.737156 88.271 -154.3744
18.872934 88.275 -154.7786
19.009695 88.279 -155.1825
19.147447 88.283 -155.5869
19.286197 88.287 -155.9926
19.425953 88.291 -156.3998
19.566721 88.295 -156.8085
19.708510 88.298 -157.2180
19.851326 88.301 -157.6274
19.995177 88.304 -158.0358
20.140070 88.306 -158.4420
20.286013 88.307 -158.8452
20.433014 88.309 -159.2454
20.581080 88.311 -159.6429
20.730219 88.314 -160.0387
20.880439 88.317 -160.4346
21.031747 88.321 -160.8327
21.184152 88.325 -161.2354
21.337661 88.329 -161.6449
21.492282 88.333 -162.0627
21.648024 88.336 -162.4894
21.804895 88.338 -162.9243
21.962902 88.337 -163.3653
22.122054 88.334 -163.8091
22.282360 88.328 -164.2510
22.443827 88.319 -164.6858
22.606464 88.307 -165.1083
22.770280 88.293 -165.5135
22.935283 88.277 -165.8981
23.101481 88.261 -166.2598
23.268884 88.245 -166.5991
23.437500 88.230 -166.9182
23.607338 88.218 -167.2214
23.778406 88.208 -167.5144
23.950714 88.201 -167.8038
24.124271 88.197 -168.0958
24.299086 88.194 -168.3956
24.475167 88.193 -168.7068
24.652524 88.192 -169.0312
24.831166 88.191 -169.3682
25.011103 88.188 -169.7158
25.192344 88.184 -170.0704
25.374898 88.178 -170.4285
25.558775 88.170 -170.7861
25.743984 88.161 -171.1406
25.930536 88.150 -171.4902
26.118439 88.139 -171.8344
26.307704 88.128 -172.1740
26.498341 88.117 -172.5102
26.690359 88.105 -172.8447
26.883768 88.094 -173.1788
27.078579 88.082 -173.5134
27.274801 88.069 -173.8486
27.472446 88.057 -174.1837
27.671522 88.043 -174.5178
27.872042 88.029 -174.8498
28.074014 88.014 -175.1790
28.277450 88.000 -175.5049
28.482360 87.985 -175.8279
28.688755 87.970 -176.1484
28.896645 87.955 -176.4674
29.106042 87.941 -176.7858
29.316957 87.926 -177.1042
29.529400 87.912 -177.4231
29.743382 87.897 -177.7424
29.958915 87.882 -178.0618
30.176009 87.866 -178.3807
30.394677 87.850 -178.6984
30.614929 87.834 -179.0141
30.836778 87.817 -179.3271
31.060234 87.801 -179.6367
31.285309 87.783 -179.9424
31.512015 87.766 179.7559
31.740364 87.749 179.4579
31.970368 87.732 179.1628
32.202039 87.716 178.8694
32.435388 87.700 178.5760
32.670428 87.684 178.2811
32.907171 87.668 177.9841
33.145630 87.651 177.6849
33.385817 87.634 177.3851
33.627745 87.615 177.0869
33.871425 87.595 176.7928
34.116871 87.575 176.5051
34.364096 87.555 176.2249
34.613113 87.534 175.9514
34.863934 87.514 175.6829
35.116572 87.495 175.4163
35.371041 87.476 175.1487
35.627354 87.457 174.8784
35.885525 87.438 174.6050
36.145566 87.417 174.3300
36.407492 87.396 174.0562
36.671316 87.374 173.7859
36.937051 87.351 173.5210
37.204712 87.329 173.2614
37.474313 87.306 173.0055
37.745867 87.284 172.7508
38.019389 87.262 172.4949
38.294893 87.240 172.2362
38.572394 87.217 171.9750
38.851905 87.193 171.7126
39.133442 87.169 171.4514
39.417019 87.144 171.1933
39.702651 87.119 170.9392
39.990353 87.094 170.6886
40.280140 87.069 170.4396
40.572026 87.044 170.1895
40.866028 87.020 169.9363
41.162160 86.996 169.6789
41.460438 86.971 169.4180
41.760877 86.945 169.1560
42.063494 86.918 168.8961
42.368303 86.890 168.6413
42.675322 86.863 168.3930
42.984565 86.835 168.1505
43.296048 86.809 167.9109
43.609789 86.783 167.6702
43.925804 86.758 167.4252
44.244108 86.732 167.1754
44.564719 86.705 166.9238
44.887654 86.675 166.6764
45.212928 86.645 166.4399
45.540560 86.613 166.2195
45.870565 86.582 166.0164
46.202962 86.552 165.8278
46.537768 86.524 165.6479
46.875000 86.497 165.4703
47.214676 86.472 165.2902
47.556813 86.447 165.1058
47.901429 86.421 164.9180
48.248542 86.395 164.7288
48.598171 86.369 164.5399
48.950334 86.341 164.3525
49.305048 86.313 164.1669
49.662333 86.285 163.9831
50.022206 86.256 163.8010
50.384688 86.226 163.6205
50.749796 86.197 163.4410
51.117550 86.166 163.2621
51.487969 86.136 163.0831
51.861072 86.105 162.9037
52.236879 86.074 162.7238
52.615409 86.043 162.5438
52.996681 86.011 162.3638
53.380717 85.979 162.1838
53.767536 85.947 162.0040
54.157158 85.915 161.8244
54.549603 85.883 161.6458
54.944892 85.851 161.4688
55.343045 85.818 161.2943
55.744084 85.786 161.1221
56.148028 85.755 160.9518
56.554900 85.724 160.7822
56.964720 85.693 160.6123
57.377510 85.663 160.4420
57.793291 85.632 160.2726
58.212085 85.600 160.1064
58.633914 85.568 159.9464
59.058799 85.536 159.7944
59.486764 85.504 159.6508
59.917829 85.472 159.5142
60.352019 85.441 159.3824
60.789354 85.410 159.2532
61.229859 85.378 159.1253
61.673556 85.346 158.9988
62.120468 85.312 158.8749
62.570618 85.277 158.7545
63.024031 85.242 158.6384
63.480729 85.205 158.5266
63.940736 85.167 158.4188
64.404077 85.128 158.3143
64.870776 85.089 158.2111
65.340856 85.049 158.1068
65.814343 85.009 158.0007
66.291261 84.969 157.8951
66.771635 84.929 157.7932
67.255489 84.891 157.6944
67.742850 84.857 157.5907
68.233743 84.826 157.4695
68.728193 84.797 157.3210
69.226226 84.769 157.1447
69.727867 84.739 156.9493
70.233144 84.707 156.7488
70.742083 84.672 156.5574
71.254709 84.636 156.3868
71.771050 84.600 156.2433
72.291132 84.566 156.1262
72.814984 84.533 156.0284
73.342631 84.503 155.9408
73.874102 84.473 155.8582
74.409424 84.444 155.7794
74.948626 84.414 155.7048
75.491734 84.383 155.6334
76.038779 84.353 155.5630
76.589787 84.321 155.4915
77.144788 84.288 155.4174
77.703811 84.255 155.3400
78.266885 84.221 155.2597
78.834039 84.186 155.1784
79.405303 84.150 155.0978
79.980706 84.115 155.0183
80.560280 84.081 154.9395
81.144053 84.046 154.8611
81.732056 84.013 154.7833
82.324320 83.979 154.7068
82.920876 83.946 154.6324
83.521755 83.913 154.5608
84.126988 83.879 154.4927
84.736607 83.846 154.4285
85.350643 83.811 154.3679
85.969129 83.777 154.3101
86.592097 83.741 154.2544
87.219579 83.706 154.2006
87.851608 83.669 154.1491
88.488217 83.633 154.1004
89.129439 83.596 154.0553
89.775308 83.561 154.0139
90.425856 83.526 153.9747
91.081119 83.492 153.9338
91.741131 83.460 153.8869
92.405925 83.428 153.8317
93.075536 83.395 153.7695
