* Measurement data measured by REW V5.31.3
* Source: Headset (2- CX31993 HIFI AUDIO), no input selected, R, volume: no control
* Format: 256k Log Swept Sine, 1 sweep at -12.0 dBFS with no timing reference
* Dated: 10 9, 24 12:28:35 PM
* REW Settings:
*  C-weighting compensation: Off
*  Target level: 75.0 dB
* Note: ; 
* Measurement: Kadenz ECHO B Treble+ L
* Smoothing: 1/12 octave
* Frequency Step: 96 ppo
* Start Frequency: 0.36621094 Hz
*
* Freq(Hz) SPL(dB) Phase(degrees)
0.366211 58.706 -49.6175
0.368865 58.699 -49.6692
0.371538 58.689 -49.7466
0.374230 58.677 -49.8437
0.376942 58.663 -49.9553
0.379673 58.649 -50.0777
0.382424 58.633 -50.2084
0.385196 58.617 -50.3459
0.387987 58.601 -50.4894
0.390798 58.585 -50.6385
0.393630 58.569 -50.7929
0.396483 58.552 -50.9527
0.399356 58.535 -51.1178
0.402250 58.518 -51.2883
0.405165 58.501 -51.4643
0.408101 58.484 -51.6459
0.411058 58.467 -51.8333
0.414037 58.450 -52.0264
0.417037 58.432 -52.2256
0.420059 58.415 -52.4308
0.423103 58.397 -52.6421
0.426169 58.379 -52.8598
0.429257 58.361 -53.0840
0.432368 58.343 -53.3147
0.435501 58.325 -53.5522
0.438656 58.306 -53.7965
0.441835 58.288 -54.0478
0.445037 58.269 -54.3063
0.448262 58.250 -54.5720
0.451510 58.231 -54.8452
0.454782 58.212 -55.1260
0.458077 58.193 -55.4145
0.461397 58.174 -55.7108
0.464740 58.154 -56.0152
0.468108 58.135 -56.3278
0.471500 58.115 -56.6488
0.474917 58.095 -56.9783
0.478358 58.075 -57.3164
0.481825 58.055 -57.6634
0.485316 58.035 -58.0193
0.488833 58.014 -58.3844
0.492375 57.993 -58.7589
0.495943 57.973 -59.1428
0.499537 57.952 -59.5363
0.503157 57.931 -59.9396
0.506803 57.909 -60.3528
0.510475 57.888 -60.7761
0.514175 57.867 -61.2097
0.517900 57.845 -61.6536
0.521653 57.823 -62.1080
0.525434 57.801 -62.5730
0.529241 57.779 -63.0489
0.533076 57.756 -63.5355
0.536939 57.734 -64.0332
0.540830 57.711 -64.5420
0.544749 57.688 -65.0619
0.548696 57.665 -65.5930
0.552673 57.642 -66.1354
0.556677 57.619 -66.6892
0.560711 57.595 -67.2543
0.564774 57.572 -67.8308
0.568867 57.548 -68.4187
0.572989 57.524 -69.0179
0.577141 57.500 -69.6284
0.581324 57.475 -70.2501
0.585536 57.451 -70.8829
0.589779 57.426 -71.5267
0.594053 57.401 -72.1813
0.598358 57.376 -72.8465
0.602694 57.351 -73.5222
0.607061 57.326 -74.2081
0.611460 57.300 -74.9038
0.615891 57.274 -75.6092
0.620354 57.248 -76.3238
0.624849 57.222 -77.0471
0.629377 57.196 -77.7789
0.633938 57.169 -78.5187
0.638532 57.142 -79.2658
0.643159 57.115 -80.0198
0.647819 57.088 -80.7802
0.652514 57.061 -81.5461
0.657242 57.033 -82.3171
0.662005 57.006 -83.0923
0.666802 56.978 -83.8711
0.671634 56.950 -84.6526
0.676501 56.921 -85.4361
0.681403 56.893 -86.2206
0.686341 56.864 -87.0054
0.691314 56.835 -87.7895
0.696324 56.806 -88.5722
0.701370 56.777 -89.3528
0.706452 56.747 -90.1307
0.711571 56.718 -90.9062
0.716728 56.688 -91.6802
0.721921 56.659 -92.4551
0.727153 56.630 -93.2351
0.732422 56.601 -94.0266
0.737729 56.573 -94.8369
0.743075 56.544 -95.6728
0.748460 56.515 -96.5395
0.753883 56.485 -97.4404
0.759346 56.454 -98.3778
0.764849 56.422 -99.3532
0.770391 56.388 -100.3678
0.775974 56.353 -101.4225
0.781597 56.317 -102.5182
0.787261 56.279 -103.6556
0.792966 56.241 -104.8355
0.798712 56.201 -106.0588
0.804500 56.160 -107.3260
0.810329 56.118 -108.6379
0.816201 56.075 -109.9950
0.822116 56.032 -111.3978
0.828073 55.988 -112.8466
0.834074 55.943 -114.3418
0.840118 55.898 -115.8834
0.846206 55.853 -117.4715
0.852338 55.807 -119.1058
0.858514 55.761 -120.7861
0.864735 55.716 -122.5118
0.871001 55.670 -124.2822
0.877313 55.625 -126.0964
0.883670 55.581 -127.9534
0.890074 55.537 -129.8519
0.896524 55.494 -131.7903
0.903020 55.452 -133.7670
0.909564 55.412 -135.7804
0.916155 55.373 -137.8282
0.922794 55.335 -139.9085
0.929481 55.299 -142.0191
0.936216 55.265 -144.1577
0.943000 55.234 -146.3219
0.949834 55.205 -148.5093
0.956717 55.179 -150.7178
0.963649 55.156 -152.9450
0.970632 55.136 -155.1888
0.977666 55.119 -157.4469
0.984750 55.107 -159.7177
0.991886 55.098 -161.9992
0.999074 55.094 -164.2901
1.006314 55.095 -166.5888
1.013606 55.100 -168.8945
1.020951 55.111 -171.2061
1.028349 55.128 -173.5231
1.035801 55.151 -175.8451
1.043307 55.180 -178.1720
1.050867 55.217 179.4960
1.058482 55.260 177.1585
1.066152 55.312 174.8150
1.073878 55.371 172.4646
1.081660 55.440 170.1065
1.089498 55.517 167.7402
1.097393 55.604 165.3658
1.105345 55.701 162.9846
1.113355 55.809 160.5997
1.121423 55.927 158.2157
1.129549 56.056 155.8388
1.137734 56.196 153.4757
1.145979 56.346 151.1336
1.154283 56.507 148.8190
1.162647 56.677 146.5381
1.171072 56.858 144.2965
1.179558 57.048 142.0987
1.188106 57.247 139.9484
1.196715 57.455 137.8488
1.205387 57.672 135.8018
1.214122 57.897 133.8090
1.222920 58.130 131.8711
1.231782 58.370 129.9882
1.240708 58.617 128.1599
1.249699 58.870 126.3853
1.258754 59.129 124.6633
1.267876 59.394 122.9922
1.277063 59.664 121.3704
1.286318 59.938 119.7958
1.295639 60.216 118.2662
1.305027 60.497 116.7795
1.314484 60.781 115.3333
1.324009 61.066 113.9253
1.333604 61.353 112.5531
1.343268 61.640 111.2144
1.353002 61.927 109.9068
1.362806 62.213 108.6281
1.372681 62.498 107.3759
1.382628 62.779 106.1482
1.392647 63.058 104.9428
1.402739 63.332 103.7576
1.412904 63.601 102.5908
1.423142 63.865 101.4407
1.433455 64.124 100.3059
1.443843 64.376 99.1853
1.454305 64.622 98.0784
1.464844 64.864 96.9854
1.475459 65.101 95.9068
1.486150 65.335 94.8435
1.496920 65.567 93.7963
1.507767 65.797 92.7657
1.518693 66.026 91.7516
1.529698 66.253 90.7539
1.540783 66.480 89.7720
1.551948 66.706 88.8054
1.563194 66.931 87.8532
1.574521 67.155 86.9146
1.585931 67.378 85.9886
1.597423 67.601 85.0744
1.608999 67.823 84.1709
1.620658 68.044 83.2771
1.632402 68.264 82.3920
1.644232 68.483 81.5145
1.656146 68.702 80.6438
1.668147 68.920 79.7786
1.680235 69.137 78.9181
1.692411 69.354 78.0612
1.704675 69.570 77.2069
1.717028 69.785 76.3542
1.729470 69.999 75.5021
1.742003 70.213 74.6497
1.754626 70.426 73.7961
1.767341 70.639 72.9404
1.780147 70.851 72.0820
1.793047 71.062 71.2204
1.806040 71.272 70.3554
1.819128 71.481 69.4871
1.832310 71.689 68.6164
1.845587 71.896 67.7442
1.858961 72.101 66.8719
1.872432 72.305 66.0008
1.886001 72.507 65.1320
1.899667 72.707 64.2664
1.913433 72.905 63.4044
1.927299 73.102 62.5466
1.941265 73.297 61.6931
1.955332 73.491 60.8441
1.969501 73.683 59.9996
1.983773 73.874 59.1593
1.998148 74.063 58.3231
2.012627 74.251 57.4908
2.027212 74.439 56.6618
2.041902 74.625 55.8359
2.056698 74.810 55.0125
2.071602 74.995 54.1910
2.086614 75.179 53.3710
2.101734 75.362 52.5517
2.116964 75.545 51.7325
2.132304 75.728 50.9127
2.147756 75.910 50.0917
2.163320 76.092 49.2689
2.178996 76.274 48.4440
2.194786 76.455 47.6167
2.210690 76.636 46.7871
2.226710 76.816 45.9556
2.242845 76.994 45.1227
2.259098 77.172 44.2891
2.275468 77.348 43.4553
2.291957 77.523 42.6218
2.308566 77.696 41.7892
2.325295 77.869 40.9577
2.342145 78.040 40.1277
2.359117 78.210 39.2991
2.376212 78.379 38.4722
2.393431 78.548 37.6468
2.410775 78.715 36.8229
2.428244 78.882 36.0002
2.445840 79.047 35.1785
2.463564 79.212 34.3575
2.481416 79.377 33.5366
2.499397 79.541 32.7154
2.517509 79.705 31.8933
2.535752 79.868 31.0697
2.554127 80.030 30.2439
2.572635 80.191 29.4155
2.591277 80.352 28.5841
2.610055 80.512 27.7498
2.628968 80.671 26.9128
2.648019 80.828 26.0736
2.667208 80.984 25.2327
2.686535 81.140 24.3907
2.706003 81.294 23.5482
2.725612 81.447 22.7057
2.745363 81.599 21.8636
2.765257 81.750 21.0223
2.785295 81.900 20.1819
2.805478 82.050 19.3425
2.825808 82.198 18.5043
2.846285 82.346 17.6671
2.866910 82.494 16.8304
2.887685 82.640 15.9938
2.908611 82.786 15.1567
2.929688 82.931 14.3182
2.950917 83.075 13.4776
2.972301 83.218 12.6342
2.993839 83.360 11.7879
3.015534 83.501 10.9388
3.037386 83.641 10.0875
3.059396 83.779 9.2346
3.081565 83.917 8.3807
3.103896 84.053 7.5267
3.126388 84.189 6.6729
3.149043 84.323 5.8201
3.171862 84.457 4.9685
3.194847 84.590 4.1185
3.217998 84.722 3.2702
3.241317 84.853 2.4232
3.264805 84.983 1.5770
3.288463 85.113 0.7310
3.312293 85.241 -0.1162
3.336295 85.368 -0.9652
3.360471 85.495 -1.8165
3.384822 85.620 -2.6703
3.409350 85.744 -3.5262
3.434056 85.867 -4.3837
3.458940 85.988 -5.2417
3.484005 86.109 -6.0996
3.509252 86.229 -6.9566
3.534681 86.348 -7.8120
3.560295 86.465 -8.6652
3.586094 86.582 -9.5159
3.612081 86.698 -10.3644
3.638255 86.814 -11.2108
3.664620 86.928 -12.0562
3.691175 87.041 -12.9015
3.717923 87.153 -13.7474
3.744864 87.264 -14.5946
3.772001 87.374 -15.4429
3.799335 87.482 -16.2918
3.826866 87.590 -17.1409
3.854597 87.697 -17.9891
3.882529 87.802 -18.8358
3.910664 87.907 -19.6803
3.939002 88.011 -20.5220
3.967546 88.113 -21.3607
3.996296 88.215 -22.1965
4.025255 88.317 -23.0300
4.054423 88.417 -23.8619
4.083804 88.516 -24.6932
4.113396 88.614 -25.5243
4.143204 88.711 -26.3553
4.173227 88.807 -27.1859
4.203468 88.902 -28.0156
4.233928 88.996 -28.8436
4.264609 89.089 -29.6693
4.295512 89.181 -30.4920
4.326639 89.272 -31.3114
4.357992 89.363 -32.1274
4.389572 89.453 -32.9404
4.421380 89.542 -33.7509
4.453419 89.630 -34.5594
4.485691 89.717 -35.3667
4.518196 89.803 -36.1727
4.550936 89.888 -36.9773
4.583914 89.973 -37.7800
4.617131 90.056 -38.5804
4.650589 90.139 -39.3781
4.684289 90.221 -40.1724
4.718233 90.303 -40.9635
4.752424 90.384 -41.7513
4.786862 90.464 -42.5364
4.821549 90.543 -43.3192
4.856488 90.621 -44.1000
4.891680 90.699 -44.8790
4.927127 90.776 -45.6560
4.962831 90.852 -46.4310
4.998794 90.928 -47.2034
5.035017 91.002 -47.9730
5.071503 91.077 -48.7398
5.108253 91.150 -49.5037
5.145270 91.223 -50.2649
5.182555 91.296 -51.0238
5.220110 91.367 -51.7807
5.257937 91.439 -52.5358
5.296038 91.509 -53.2889
5.334415 91.579 -54.0400
5.373071 91.648 -54.7888
5.412006 91.716 -55.5353
5.451224 91.784 -56.2794
5.490725 91.852 -57.0211
5.530514 91.919 -57.7606
5.570590 91.985 -58.4984
5.610957 92.050 -59.2345
5.651616 92.115 -59.9689
5.692570 92.180 -60.7015
5.733821 92.244 -61.4323
5.775370 92.307 -62.1609
5.817221 92.369 -62.8874
5.859375 92.431 -63.6119
5.901834 92.492 -64.3346
5.944602 92.553 -65.0556
5.987679 92.613 -65.7751
6.031068 92.673 -66.4930
6.074771 92.731 -67.2090
6.118792 92.790 -67.9231
6.163131 92.847 -68.6351
6.207792 92.904 -69.3448
6.252776 92.960 -70.0527
6.298086 93.016 -70.7585
6.343725 93.071 -71.4626
6.389694 93.125 -72.1648
6.435996 93.178 -72.8650
6.482634 93.231 -73.5629
6.529610 93.283 -74.2584
6.576926 93.335 -74.9514
6.624585 93.386 -75.6419
6.672590 93.436 -76.3301
6.720942 93.486 -77.0160
6.769645 93.535 -77.6995
6.818700 93.583 -78.3804
6.868111 93.631 -79.0586
6.917881 93.678 -79.7338
6.968010 93.724 -80.4061
7.018504 93.770 -81.0756
7.069362 93.816 -81.7421
7.120590 93.860 -82.4058
7.172189 93.904 -83.0667
7.224161 93.948 -83.7244
7.276511 93.991 -84.3789
7.329239 94.033 -85.0302
7.382350 94.075 -85.6783
7.435845 94.116 -86.3234
7.489729 94.157 -86.9653
7.544002 94.198 -87.6041
7.598669 94.237 -88.2397
7.653732 94.277 -88.8721
7.709194 94.316 -89.5013
7.765058 94.354 -90.1273
7.821327 94.392 -90.7501
7.878004 94.430 -91.3700
7.935091 94.467 -91.9867
7.992592 94.504 -92.6004
8.050510 94.541 -93.2111
8.108847 94.577 -93.8187
8.167607 94.612 -94.4234
8.226793 94.648 -95.0252
8.286408 94.683 -95.6241
8.346454 94.717 -96.2203
8.406936 94.752 -96.8137
8.467856 94.785 -97.4043
8.529218 94.819 -97.9922
8.591024 94.852 -98.5775
8.653278 94.885 -99.1602
8.715983 94.918 -99.7402
8.779143 94.950 -100.3179
8.842760 94.982 -100.8929
8.906839 95.013 -101.4657
8.971381 95.044 -102.0360
9.036392 95.075 -102.6041
9.101873 95.106 -103.1699
9.167829 95.136 -103.7334
9.234263 95.166 -104.2948
9.301178 95.196 -104.8540
9.368578 95.225 -105.4112
9.436467 95.254 -105.9663
9.504847 95.282 -106.5194
9.573723 95.310 -107.0706
9.643099 95.338 -107.6199
9.712976 95.365 -108.1672
9.783361 95.392 -108.7126
9.854255 95.419 -109.2561
9.925663 95.445 -109.7976
9.997588 95.471 -110.3372
10.070035 95.496 -110.8749
10.143007 95.520 -111.4103
10.216507 95.545 -111.9437
10.290540 95.568 -112.4747
10.365109 95.592 -113.0035
10.440219 95.614 -113.5297
10.515873 95.637 -114.0532
10.592076 95.658 -114.5739
10.668830 95.679 -115.0916
10.746141 95.700 -115.6062
10.824012 95.720 -116.1174
10.902447 95.740 -116.6251
10.981451 95.759 -117.1290
11.061027 95.778 -117.6292
11.141180 95.796 -118.1254
11.221913 95.814 -118.6174
11.303232 95.832 -119.1053
11.385140 95.849 -119.5891
11.467641 95.866 -120.0686
11.550741 95.883 -120.5439
11.634442 95.900 -121.0153
11.718750 95.916 -121.4825
11.803669 95.933 -121.9460
11.889203 95.949 -122.4060
11.975357 95.965 -122.8627
12.062136 95.982 -123.3163
12.149543 95.998 -123.7671
12.237583 96.015 -124.2156
12.326262 96.031 -124.6620
12.415583 96.048 -125.1066
12.505552 96.064 -125.5499
12.596172 96.081 -125.9920
12.687449 96.097 -126.4333
12.779387 96.114 -126.8739
12.871992 96.130 -127.3141
12.965268 96.146 -127.7539
13.059220 96.162 -128.1935
13.153852 96.177 -128.6327
13.249170 96.193 -129.0716
13.345179 96.207 -129.5100
13.441884 96.222 -129.9478
13.539289 96.236 -130.3848
13.637401 96.249 -130.8206
13.736223 96.262 -131.2549
13.835761 96.275 -131.6876
13.936021 96.287 -132.1182
14.037007 96.299 -132.5466
14.138725 96.310 -132.9724
14.241180 96.321 -133.3954
14.344377 96.331 -133.8156
14.448323 96.341 -134.2325
14.553021 96.351 -134.6464
14.658478 96.360 -135.0571
14.764700 96.370 -135.4647
14.871691 96.379 -135.8693
14.979457 96.388 -136.2712
15.088005 96.397 -136.6704
15.197339 96.406 -137.0672
15.307465 96.415 -137.4619
15.418389 96.424 -137.8547
15.530117 96.433 -138.2458
15.642655 96.442 -138.6355
15.756008 96.450 -139.0237
15.870182 96.459 -139.4107
15.985184 96.467 -139.7964
16.101019 96.475 -140.1807
16.217694 96.483 -140.5637
16.335214 96.491 -140.9450
16.453586 96.499 -141.3246
16.572815 96.506 -141.7021
16.692909 96.513 -142.0775
16.813872 96.520 -142.4507
16.935713 96.527 -142.8214
17.058436 96.534 -143.1899
17.182048 96.541 -143.5562
17.306556 96.548 -143.9205
17.431967 96.555 -144.2833
17.558286 96.562 -144.6451
17.685521 96.569 -145.0063
17.813677 96.576 -145.3676
17.942762 96.584 -145.7296
18.072783 96.591 -146.0926
18.203746 96.598 -146.4570
18.335658 96.605 -146.8229
18.468526 96.611 -147.1902
18.602356 96.617 -147.5583
18.737156 96.621 -147.9265
18.872934 96.625 -148.2938
19.009695 96.628 -148.6588
19.147447 96.630 -149.0200
19.286197 96.631 -149.3759
19.425953 96.631 -149.7251
19.566721 96.631 -150.0664
19.708510 96.630 -150.3989
19.851326 96.629 -150.7222
19.995177 96.629 -151.0365
20.140070 96.629 -151.3428
20.286013 96.630 -151.6423
20.433014 96.633 -151.9371
20.581080 96.636 -152.2297
20.730219 96.641 -152.5227
20.880439 96.648 -152.8185
21.031747 96.655 -153.1197
21.184152 96.662 -153.4279
21.337661 96.670 -153.7443
21.492282 96.678 -154.0690
21.648024 96.685 -154.4016
21.804895 96.691 -154.7407
21.962902 96.695 -155.0840
22.122054 96.698 -155.4291
22.282360 96.699 -155.7729
22.443827 96.698 -156.1129
22.606464 96.697 -156.4467
22.770280 96.694 -156.7725
22.935283 96.690 -157.0892
23.101481 96.687 -157.3970
23.268884 96.684 -157.6965
23.437500 96.681 -157.9893
23.607338 96.679 -158.2772
23.778406 96.678 -158.5626
23.950714 96.678 -158.8477
24.124271 96.678 -159.1343
24.299086 96.679 -159.4236
24.475167 96.679 -159.7163
24.652524 96.680 -160.0122
24.831166 96.680 -160.3105
25.011103 96.679 -160.6100
25.192344 96.677 -160.9092
25.374898 96.675 -161.2064
25.558775 96.673 -161.5002
25.743984 96.669 -161.7898
25.930536 96.666 -162.0746
26.118439 96.663 -162.3549
26.307704 96.660 -162.6313
26.498341 96.657 -162.9049
26.690359 96.655 -163.1771
26.883768 96.653 -163.4491
27.078579 96.651 -163.7219
27.274801 96.650 -163.9961
27.472446 96.648 -164.2719
27.671522 96.646 -164.5487
27.872042 96.643 -164.8258
28.074014 96.640 -165.1022
28.277450 96.637 -165.3770
28.482360 96.633 -165.6498
28.688755 96.629 -165.9205
28.896645 96.625 -166.1896
29.106042 96.621 -166.4579
29.316957 96.616 -166.7261
29.529400 96.611 -166.9946
29.743382 96.605 -167.2628
29.958915 96.598 -167.5292
30.176009 96.590 -167.7913
30.394677 96.581 -168.0460
30.614929 96.571 -168.2905
30.836778 96.561 -168.5226
31.060234 96.552 -168.7421
31.285309 96.543 -168.9508
31.512015 96.536 -169.1525
31.740364 96.532 -169.3524
31.970368 96.529 -169.5559
32.202039 96.528 -169.7676
32.435388 96.528 -169.9901
32.670428 96.527 -170.2233
32.907171 96.526 -170.4650
33.145630 96.523 -170.7113
33.385817 96.520 -170.9586
33.627745 96.516 -171.2042
33.871425 96.511 -171.4477
34.116871 96.507 -171.6904
34.364096 96.504 -171.9353
34.613113 96.500 -172.1849
34.863934 96.497 -172.4410
35.116572 96.492 -172.7028
35.371041 96.487 -172.9677
35.627354 96.479 -173.2316
35.885525 96.471 -173.4908
36.145566 96.462 -173.7430
36.407492 96.453 -173.9878
36.671316 96.444 -174.2269
36.937051 96.436 -174.4630
37.204712 96.428 -174.6984
37.474313 96.421 -174.9340
37.745867 96.413 -175.1692
38.019389 96.405 -175.4025
38.294893 96.396 -175.6326
38.572394 96.388 -175.8593
38.851905 96.381 -176.0842
39.133442 96.374 -176.3105
39.417019 96.368 -176.5408
39.702651 96.361 -176.7767
39.990353 96.354 -177.0175
40.280140 96.345 -177.2606
40.572026 96.335 -177.5024
40.866028 96.325 -177.7401
41.162160 96.313 -177.9726
41.460438 96.301 -178.2006
41.760877 96.290 -178.4261
42.063494 96.278 -178.6511
42.368303 96.266 -178.8762
42.675322 96.254 -179.1005
42.984565 96.241 -179.3221
43.296048 96.227 -179.5392
43.609789 96.214 -179.7510
43.925804 96.201 -179.9583
44.244108 96.189 179.8367
44.564719 96.177 179.6313
44.887654 96.166 179.4234
45.212928 96.155 179.2119
45.540560 96.144 178.9976
45.870565 96.133 178.7825
46.202962 96.121 178.5687
46.537768 96.109 178.3580
46.875000 96.097 178.1505
47.214676 96.085 177.9446
47.556813 96.075 177.7374
47.901429 96.064 177.5266
48.248542 96.053 177.3109
48.598171 96.041 177.0922
48.950334 96.027 176.8740
49.305048 96.013 176.6613
49.662333 95.997 176.4579
50.022206 95.982 176.2648
50.384688 95.967 176.0792
50.749796 95.954 175.8958
51.117550 95.942 175.7076
51.487969 95.931 175.5092
51.861072 95.920 175.2979
52.236879 95.907 175.0755
52.615409 95.892 174.8474
52.996681 95.875 174.6210
53.380717 95.856 174.4026
53.767536 95.837 174.1958
54.157158 95.818 174.0001
54.549603 95.800 173.8121
54.944892 95.784 173.6271
55.343045 95.769 173.4406
55.744084 95.755 173.2491
56.148028 95.742 173.0498
56.554900 95.729 172.8406
56.964720 95.714 172.6219
57.377510 95.698 172.3980
57.793291 95.679 172.1772
58.212085 95.657 171.9691
58.633914 95.634 171.7805
59.058799 95.611 171.6118
59.486764 95.589 171.4576
59.917829 95.569 171.3101
60.352019 95.549 171.1637
60.789354 95.531 171.0163
61.229859 95.513 170.8680
61.673556 95.495 170.7176
62.120468 95.479 170.5616
62.570618 95.462 170.3954
63.024031 95.446 170.2162
63.480729 95.428 170.0259
63.940736 95.408 169.8300
64.404077 95.387 169.6350
64.870776 95.364 169.4460
65.340856 95.341 169.2651
65.814343 95.318 169.0922
66.291261 95.296 168.9269
66.771635 95.275 168.7679
67.255489 95.255 168.6116
67.742850 95.236 168.4517
68.233743 95.219 168.2821
68.728193 95.201 168.1007
69.226226 95.181 167.9114
69.727867 95.159 167.7209
70.233144 95.134 167.5354
70.742083 95.108 167.3588
71.254709 95.080 167.1948
71.771050 95.052 167.0475
72.291132 95.024 166.9177
72.814984 94.998 166.7997
73.342631 94.975 166.6828
73.874102 94.953 166.5569
74.409424 94.933 166.4183
74.948626 94.912 166.2690
75.491734 94.891 166.1143
76.038779 94.868 165.9584
76.589787 94.846 165.8037
77.144788 94.823 165.6511
77.703811 94.799 165.5005
78.266885 94.776 165.3528
78.834039 94.751 165.2090
79.405303 94.727 165.0695
79.980706 94.702 164.9329
80.560280 94.678 164.7970
81.144053 94.652 164.6609
81.732056 94.626 164.5261
82.324320 94.598 164.3952
82.920876 94.570 164.2705
83.521755 94.542 164.1516
84.126988 94.514 164.0353
84.736607 94.487 163.9181
85.350643 94.460 163.7977
85.969129 94.432 163.6742
86.592097 94.404 163.5494
87.219579 94.376 163.4254
87.851608 94.347 163.3025
88.488217 94.318 163.1802
89.129439 94.289 163.0577
89.775308 94.259 162.9357
