* Measurement data measured by REW V5.31.3
* Source: Headset (2- CX31993 HIFI AUDIO), MICROPHONE (Master Volume), R, volume: 0.500
* Format: 256k Log Swept Sine, 1 sweep at -11.9 dBFS with no timing reference
* Dated: 09 2, 25 3:36:09 PM
* REW Settings:
*  C-weighting compensation: Off
*  Target level: 75.0 dB
* Note: ; 
* Measurement: MD Blessing2 LDF DD L
* Smoothing: 1/12 octave
* Frequency Step: 96 ppo
* Start Frequency: 0.36621094 Hz
*
* Freq(Hz) SPL(dB) Phase(degrees)
0.366211 50.526 -0.9268
0.368865 50.519 -0.9172
0.371538 50.508 -0.9031
0.374230 50.495 -0.8855
0.376942 50.480 -0.8655
0.379673 50.464 -0.8439
0.382424 50.447 -0.8212
0.385196 50.429 -0.7977
0.387987 50.412 -0.7736
0.390798 50.394 -0.7490
0.393630 50.376 -0.7238
0.396483 50.358 -0.6982
0.399356 50.339 -0.6721
0.402250 50.321 -0.6455
0.405165 50.302 -0.6184
0.408101 50.283 -0.5909
0.411058 50.264 -0.5627
0.414037 50.245 -0.5341
0.417037 50.226 -0.5049
0.420059 50.207 -0.4751
0.423103 50.187 -0.4447
0.426169 50.168 -0.4137
0.429257 50.148 -0.3821
0.432368 50.128 -0.3498
0.435501 50.108 -0.3168
0.438656 50.088 -0.2832
0.441835 50.067 -0.2488
0.445037 50.047 -0.2136
0.448262 50.026 -0.1777
0.451510 50.006 -0.1410
0.454782 49.985 -0.1035
0.458077 49.964 -0.0651
0.461397 49.942 -0.0259
0.464740 49.921 0.0143
0.468108 49.899 0.0554
0.471500 49.878 0.0974
0.474917 49.856 0.1405
0.478358 49.834 0.1846
0.481825 49.812 0.2298
0.485316 49.789 0.2760
0.488833 49.767 0.3234
0.492375 49.744 0.3720
0.495943 49.721 0.4217
0.499537 49.698 0.4728
0.503157 49.675 0.5251
0.506803 49.652 0.5787
0.510475 49.629 0.6338
0.514175 49.605 0.6902
0.517900 49.581 0.7482
0.521653 49.557 0.8076
0.525434 49.533 0.8686
0.529241 49.509 0.9313
0.533076 49.484 0.9956
0.536939 49.459 1.0616
0.540830 49.434 1.1294
0.544749 49.409 1.1991
0.548696 49.384 1.2706
0.552673 49.359 1.3442
0.556677 49.333 1.4197
0.560711 49.307 1.4974
0.564774 49.281 1.5772
0.568867 49.255 1.6592
0.572989 49.229 1.7436
0.577141 49.202 1.8303
0.581324 49.175 1.9195
0.585536 49.149 2.0112
0.589779 49.121 2.1056
0.594053 49.094 2.2026
0.598358 49.067 2.3025
0.602694 49.039 2.4052
0.607061 49.011 2.5108
0.611460 48.983 2.6196
0.615891 48.954 2.7315
0.620354 48.926 2.8466
0.624849 48.897 2.9652
0.629377 48.868 3.0871
0.633938 48.839 3.2127
0.638532 48.810 3.3419
0.643159 48.780 3.4750
0.647819 48.750 3.6119
0.652514 48.720 3.7529
0.657242 48.690 3.8981
0.662005 48.660 4.0475
0.666802 48.629 4.2013
0.671634 48.598 4.3597
0.676501 48.567 4.5227
0.681403 48.536 4.6905
0.686341 48.504 4.8633
0.691314 48.472 5.0411
0.696324 48.440 5.2242
0.701370 48.408 5.4126
0.706452 48.376 5.6066
0.711571 48.343 5.8063
0.716728 48.311 6.0119
0.721921 48.278 6.2236
0.727153 48.246 6.4417
0.732422 48.214 6.6664
0.737729 48.183 6.8982
0.743075 48.152 7.1373
0.748460 48.121 7.3841
0.753883 48.089 7.6388
0.759346 48.058 7.9018
0.764849 48.025 8.1731
0.770391 47.993 8.4531
0.775974 47.960 8.7419
0.781597 47.926 9.0396
0.787261 47.892 9.3466
0.792966 47.857 9.6628
0.798712 47.822 9.9886
0.804500 47.787 10.3241
0.810329 47.751 10.6693
0.816201 47.715 11.0246
0.822116 47.678 11.3900
0.828073 47.642 11.7657
0.834074 47.605 12.1519
0.840118 47.567 12.5486
0.846206 47.530 12.9560
0.852338 47.492 13.3742
0.858514 47.455 13.8033
0.864735 47.417 14.2433
0.871001 47.380 14.6945
0.877313 47.342 15.1567
0.883670 47.305 15.6301
0.890074 47.268 16.1146
0.896524 47.231 16.6103
0.903020 47.194 17.1171
0.909564 47.158 17.6349
0.916155 47.122 18.1637
0.922794 47.087 18.7033
0.929481 47.052 19.2537
0.936216 47.018 19.8145
0.943000 46.985 20.3856
0.949834 46.952 20.9666
0.956717 46.921 21.5574
0.963649 46.890 22.1575
0.970632 46.861 22.7665
0.977666 46.833 23.3839
0.984750 46.806 24.0093
0.991886 46.780 24.6421
0.999074 46.756 25.2817
1.006314 46.734 25.9275
1.013606 46.713 26.5786
1.020951 46.694 27.2344
1.028349 46.677 27.8941
1.035801 46.662 28.5567
1.043307 46.650 29.2215
1.050867 46.639 29.8874
1.058482 46.632 30.5538
1.066152 46.626 31.2197
1.073878 46.624 31.8847
1.081660 46.624 32.5485
1.089498 46.628 33.2112
1.097393 46.635 33.8734
1.105345 46.645 34.5363
1.113355 46.658 35.2009
1.121423 46.675 35.8682
1.129549 46.696 36.5384
1.137734 46.720 37.2114
1.145979 46.747 37.8869
1.154283 46.778 38.5640
1.162647 46.812 39.2419
1.171072 46.850 39.9195
1.179558 46.891 40.5960
1.188106 46.935 41.2701
1.196715 46.981 41.9408
1.205387 47.031 42.6070
1.214122 47.084 43.2678
1.222920 47.139 43.9219
1.231782 47.197 44.5685
1.240708 47.258 45.2065
1.249699 47.321 45.8350
1.258754 47.386 46.4530
1.267876 47.454 47.0597
1.277063 47.523 47.6541
1.286318 47.594 48.2355
1.295639 47.667 48.8031
1.305027 47.741 49.3561
1.314484 47.817 49.8938
1.324009 47.893 50.4155
1.333604 47.971 50.9206
1.343268 48.050 51.4085
1.353002 48.129 51.8786
1.362806 48.208 52.3304
1.372681 48.287 52.7634
1.382628 48.366 53.1770
1.392647 48.445 53.5709
1.402739 48.524 53.9447
1.412904 48.601 54.2981
1.423142 48.678 54.6308
1.433455 48.753 54.9430
1.443843 48.828 55.2349
1.454305 48.902 55.5070
1.464844 48.975 55.7601
1.475459 49.048 55.9955
1.486150 49.122 56.2143
1.496920 49.196 56.4174
1.507767 49.272 56.6053
1.518693 49.348 56.7784
1.529698 49.426 56.9369
1.540783 49.505 57.0807
1.551948 49.586 57.2097
1.563194 49.667 57.3239
1.574521 49.749 57.4231
1.585931 49.832 57.5071
1.597423 49.916 57.5759
1.608999 50.000 57.6293
1.620658 50.084 57.6670
1.632402 50.168 57.6891
1.644232 50.253 57.6953
1.656146 50.337 57.6854
1.668147 50.421 57.6592
1.680235 50.504 57.6166
1.692411 50.586 57.5572
1.704675 50.668 57.4809
1.717028 50.748 57.3874
1.729470 50.826 57.2762
1.742003 50.903 57.1471
1.754626 50.978 56.9996
1.767341 51.051 56.8333
1.780147 51.121 56.6475
1.793047 51.189 56.4417
1.806040 51.254 56.2150
1.819128 51.317 55.9667
1.832310 51.376 55.6960
1.845587 51.433 55.4022
1.858961 51.488 55.0848
1.872432 51.540 54.7435
1.886001 51.590 54.3785
1.899667 51.638 53.9901
1.913433 51.684 53.5787
1.927299 51.728 53.1448
1.941265 51.769 52.6890
1.955332 51.809 52.2116
1.969501 51.846 51.7132
1.983773 51.881 51.1942
1.998148 51.914 50.6549
2.012627 51.945 50.0957
2.027212 51.973 49.5166
2.041902 52.000 48.9178
2.056698 52.024 48.2993
2.071602 52.046 47.6608
2.086614 52.065 47.0022
2.101734 52.083 46.3228
2.116964 52.098 45.6219
2.132304 52.111 44.8983
2.147756 52.121 44.1506
2.163320 52.128 43.3764
2.178996 52.132 42.5728
2.194786 52.133 41.7364
2.210690 52.130 40.8632
2.226710 52.122 39.9493
2.242845 52.109 38.9919
2.259098 52.091 37.9890
2.275468 52.069 36.9394
2.291957 52.042 35.8426
2.308566 52.012 34.6985
2.325295 51.978 33.5073
2.342145 51.941 32.2690
2.359117 51.902 30.9836
2.376212 51.861 29.6512
2.393431 51.819 28.2714
2.410775 51.778 26.8439
2.428244 51.737 25.3678
2.445840 51.698 23.8420
2.463564 51.661 22.2647
2.481416 51.628 20.6334
2.499397 51.599 18.9449
2.517509 51.575 17.1947
2.535752 51.557 15.3769
2.554127 51.545 13.4841
2.572635 51.540 11.5085
2.591277 51.542 9.4422
2.610055 51.549 7.2792
2.628968 51.562 5.0162
2.648019 51.580 2.6525
2.667208 51.602 0.1895
2.686535 51.626 -2.3692
2.706003 51.654 -5.0189
2.725612 51.683 -7.7534
2.745363 51.713 -10.5659
2.765257 51.744 -13.4490
2.785295 51.775 -16.3947
2.805478 51.806 -19.3952
2.825808 51.838 -22.4427
2.846285 51.873 -25.5301
2.866910 51.913 -28.6509
2.887685 51.962 -31.7991
2.908611 52.029 -34.9696
2.929688 52.119 -38.1567
2.950917 52.238 -41.3534
2.972301 52.387 -44.5501
2.993839 52.564 -47.7347
3.015534 52.765 -50.8933
3.037386 52.987 -54.0120
3.059396 53.226 -57.0777
3.081565 53.481 -60.0796
3.103896 53.747 -63.0091
3.126388 54.023 -65.8605
3.149043 54.306 -68.6304
3.171862 54.594 -71.3179
3.194847 54.886 -73.9241
3.217998 55.179 -76.4517
3.241317 55.472 -78.9045
3.264805 55.766 -81.2870
3.288463 56.060 -83.6035
3.312293 56.355 -85.8577
3.336295 56.653 -88.0518
3.360471 56.953 -90.1870
3.384822 57.257 -92.2636
3.409350 57.564 -94.2816
3.434056 57.874 -96.2416
3.458940 58.185 -98.1443
3.484005 58.497 -99.9917
3.509252 58.808 -101.7859
3.534681 59.118 -103.5298
3.560295 59.425 -105.2270
3.586094 59.729 -106.8811
3.612081 60.028 -108.4963
3.638255 60.322 -110.0765
3.664620 60.612 -111.6255
3.691175 60.896 -113.1463
3.717923 61.176 -114.6409
3.744864 61.452 -116.1103
3.772001 61.724 -117.5548
3.799335 61.993 -118.9743
3.826866 62.257 -120.3688
3.854597 62.518 -121.7385
3.882529 62.776 -123.0839
3.910664 63.031 -124.4059
3.939002 63.282 -125.7060
3.967546 63.530 -126.9860
3.996296 63.774 -128.2483
4.025255 64.014 -129.4952
4.054423 64.251 -130.7291
4.083804 64.484 -131.9517
4.113396 64.713 -133.1637
4.143204 64.938 -134.3651
4.173227 65.159 -135.5553
4.203468 65.376 -136.7333
4.233928 65.590 -137.8985
4.264609 65.800 -139.0503
4.295512 66.008 -140.1887
4.326639 66.212 -141.3142
4.357992 66.413 -142.4279
4.389572 66.611 -143.5317
4.421380 66.805 -144.6273
4.453419 66.996 -145.7163
4.485691 67.184 -146.7996
4.518196 67.368 -147.8769
4.550936 67.548 -148.9475
4.583914 67.726 -150.0103
4.617131 67.900 -151.0641
4.650589 68.071 -152.1080
4.684289 68.239 -153.1417
4.718233 68.404 -154.1655
4.752424 68.567 -155.1805
4.786862 68.726 -156.1880
4.821549 68.883 -157.1897
4.856488 69.036 -158.1861
4.891680 69.186 -159.1773
4.927127 69.334 -160.1625
4.962831 69.478 -161.1406
4.998794 69.620 -162.1104
5.035017 69.759 -163.0710
5.071503 69.895 -164.0219
5.108253 70.029 -164.9634
5.145270 70.160 -165.8964
5.182555 70.289 -166.8220
5.220110 70.415 -167.7412
5.257937 70.539 -168.6541
5.296038 70.660 -169.5603
5.334415 70.778 -170.4590
5.373071 70.894 -171.3491
5.412006 71.009 -172.2299
5.451224 71.121 -173.1010
5.490725 71.231 -173.9625
5.530514 71.339 -174.8150
5.570590 71.445 -175.6594
5.610957 71.549 -176.4962
5.651616 71.651 -177.3254
5.692570 71.752 -178.1470
5.733821 71.850 -178.9603
5.775370 71.947 -179.7650
5.817221 72.043 179.4393
5.859375 72.137 178.6526
5.901834 72.230 177.8743
5.944602 72.322 177.1041
5.987679 72.412 176.3414
6.031068 72.501 175.5857
6.074771 72.589 174.8369
6.118792 72.676 174.0948
6.163131 72.762 173.3595
6.207792 72.847 172.6307
6.252776 72.931 171.9082
6.298086 73.015 171.1916
6.343725 73.098 170.4805
6.389694 73.180 169.7742
6.435996 73.261 169.0724
6.482634 73.342 168.3745
6.529610 73.422 167.6801
6.576926 73.502 166.9888
6.624585 73.581 166.3003
6.672590 73.659 165.6142
6.720942 73.737 164.9303
6.769645 73.814 164.2483
6.818700 73.891 163.5679
6.868111 73.966 162.8888
6.917881 74.041 162.2107
6.968010 74.116 161.5332
7.018504 74.189 160.8562
7.069362 74.262 160.1797
7.120590 74.333 159.5039
7.172189 74.404 158.8291
7.224161 74.474 158.1556
7.276511 74.542 157.4837
7.329239 74.610 156.8135
7.382350 74.676 156.1451
7.435845 74.741 155.4788
7.489729 74.805 154.8151
7.544002 74.867 154.1550
7.598669 74.929 153.4993
7.653732 74.989 152.8490
7.709194 75.048 152.2044
7.765058 75.106 151.5660
7.821327 75.163 150.9342
7.878004 75.219 150.3096
7.935091 75.274 149.6930
7.992592 75.328 149.0853
8.050510 75.382 148.4871
8.108847 75.436 147.8988
8.167607 75.489 147.3205
8.226793 75.542 146.7520
8.286408 75.595 146.1931
8.346454 75.648 145.6438
8.406936 75.702 145.1039
8.467856 75.756 144.5732
8.529218 75.812 144.0509
8.591024 75.868 143.5363
8.653278 75.925 143.0281
8.715983 75.983 142.5248
8.779143 76.042 142.0255
8.842760 76.102 141.5291
8.906839 76.164 141.0345
8.971381 76.227 140.5408
9.036392 76.290 140.0466
9.101873 76.354 139.5505
9.167829 76.419 139.0518
9.234263 76.485 138.5497
9.301178 76.550 138.0444
9.368578 76.616 137.5359
9.436467 76.681 137.0248
9.504847 76.745 136.5116
9.573723 76.808 135.9969
9.643099 76.870 135.4823
9.712976 76.931 134.9697
9.783361 76.990 134.4615
9.854255 77.048 133.9605
9.925663 77.104 133.4689
9.997588 77.158 132.9892
10.070035 77.211 132.5239
10.143007 77.263 132.0759
10.216507 77.315 131.6483
10.290540 77.366 131.2429
10.365109 77.418 130.8614
10.440219 77.471 130.5042
10.515873 77.525 130.1712
10.592076 77.582 129.8620
10.668830 77.643 129.5751
10.746141 77.707 129.3078
10.824012 77.776 129.0557
10.902447 77.851 128.8134
10.981451 77.931 128.5748
11.061027 78.017 128.3340
11.141180 78.109 128.0842
11.221913 78.207 127.8180
11.303232 78.310 127.5276
11.385140 78.417 127.2063
11.467641 78.528 126.8490
11.550741 78.641 126.4515
11.634442 78.755 126.0103
11.718750 78.869 125.5235
11.803669 78.981 124.9910
11.889203 79.089 124.4150
11.975357 79.193 123.7997
12.062136 79.290 123.1505
12.149543 79.380 122.4739
12.237583 79.462 121.7779
12.326262 79.535 121.0726
12.415583 79.598 120.3691
12.505552 79.653 119.6783
12.596172 79.698 119.0109
12.687449 79.735 118.3782
12.779387 79.764 117.7912
12.871992 79.788 117.2596
12.965268 79.808 116.7906
13.059220 79.826 116.3889
13.153852 79.844 116.0569
13.249170 79.866 115.7940
13.345179 79.893 115.5952
13.441884 79.928 115.4510
13.539289 79.972 115.3491
13.637401 80.027 115.2745
13.736223 80.094 115.2100
13.835761 80.173 115.1372
13.936021 80.261 115.0379
14.037007 80.359 114.8968
14.138725 80.463 114.7017
14.241180 80.572 114.4436
14.344377 80.680 114.1184
14.448323 80.787 113.7271
14.553021 80.889 113.2758
14.658478 80.984 112.7746
14.764700 81.069 112.2365
14.871691 81.143 111.6782
14.979457 81.206 111.1184
15.088005 81.258 110.5760
15.197339 81.300 110.0691
15.307465 81.335 109.6143
15.418389 81.363 109.2253
15.530117 81.390 108.9108
15.642655 81.418 108.6734
15.756008 81.452 108.5096
15.870182 81.494 108.4088
15.985184 81.548 108.3533
16.101019 81.616 108.3200
16.217694 81.699 108.2827
16.335214 81.795 108.2144
16.453586 81.904 108.0895
16.572815 82.020 107.8875
16.692909 82.141 107.5947
16.813872 82.263 107.2053
16.935713 82.379 106.7213
17.058436 82.487 106.1532
17.182048 82.582 105.5183
17.306556 82.662 104.8392
17.431967 82.726 104.1422
17.558286 82.774 103.4558
17.685521 82.806 102.8081
17.813677 82.826 102.2246
17.942762 82.836 101.7263
18.072783 82.842 101.3274
18.203746 82.848 101.0329
18.335658 82.861 100.8380
18.468526 82.884 100.7275
18.602356 82.922 100.6767
18.737156 82.977 100.6537
18.872934 83.050 100.6240
19.009695 83.139 100.5538
19.147447 83.240 100.4142
19.286197 83.350 100.1847
19.425953 83.464 99.8550
19.566721 83.576 99.4244
19.708510 83.683 98.9019
19.851326 83.781 98.3033
19.995177 83.868 97.6488
20.140070 83.942 96.9607
20.286013 84.005 96.2605
20.433014 84.058 95.5668
20.581080 84.102 94.8940
20.730219 84.139 94.2509
20.880439 84.173 93.6410
21.031747 84.205 93.0633
21.184152 84.236 92.5139
21.337661 84.267 91.9882
21.492282 84.297 91.4828
21.648024 84.326 90.9973
21.804895 84.354 90.5356
21.962902 84.380 90.1052
22.122054 84.404 89.7163
22.282360 84.428 89.3795
22.443827 84.456 89.1023
22.606464 84.489 88.8864
22.770280 84.533 88.7249
22.935283 84.590 88.6010
23.101481 84.663 88.4885
23.268884 84.753 88.3552
23.437500 84.858 88.1672
23.607338 84.975 87.8945
23.778406 85.098 87.5166
23.950714 85.221 87.0257
24.124271 85.337 86.4283
24.299086 85.441 85.7442
24.475167 85.529 85.0038
24.652524 85.599 84.2437
24.831166 85.651 83.5025
25.011103 85.688 82.8152
25.192344 85.713 82.2087
25.374898 85.733 81.6985
25.558775 85.752 81.2856
25.743984 85.777 80.9575
25.930536 85.810 80.6907
26.118439 85.853 80.4553
26.307704 85.905 80.2214
26.498341 85.964 79.9647
26.690359 86.026 79.6704
26.883768 86.086 79.3347
27.078579 86.143 78.9631
27.274801 86.194 78.5678
27.472446 86.238 78.1630
27.671522 86.276 77.7615
27.872042 86.309 77.3714
28.074014 86.340 76.9955
28.277450 86.369 76.6314
28.482360 86.397 76.2742
28.688755 86.424 75.9187
28.896645 86.450 75.5625
29.106042 86.475 75.2067
29.316957 86.498 74.8558
29.529400 86.520 74.5160
29.743382 86.543 74.1918
29.958915 86.569 73.8842
30.176009 86.601 73.5883
30.394677 86.640 73.2941
30.614929 86.687 72.9883
30.836778 86.743 72.6573
31.060234 86.806 72.2904
31.285309 86.875 71.8818
31.512015 86.949 71.4306
31.740364 87.027 70.9391
31.970368 87.108 70.4097
32.202039 87.194 69.8427
32.435388 87.283 69.2341
32.670428 87.374 68.5775
32.907171 87.465 67.8662
33.145630 87.554 67.0981
33.385817 87.634 66.2800
33.627745 87.701 65.4306
33.871425 87.751 64.5810
34.116871 87.783 63.7727
34.364096 87.795 63.0536
34.613113 87.791 62.4712
34.863934 87.777 62.0653
35.116572 87.762 61.8602
35.371041 87.753 61.8574
35.627354 87.761 62.0313
35.885525 87.793 62.3298
36.145566 87.852 62.6806
36.407492 87.937 63.0036
36.671316 88.041 63.2276
36.937051 88.154 63.3035
37.204712 88.263 63.2144
37.474313 88.358 62.9766
37.745867 88.430 62.6347
38.019389 88.475 62.2510
38.294893 88.495 61.8912
38.572394 88.494 61.6092
38.851905 88.484 61.4340
39.133442 88.475 61.3615
39.417019 88.476 61.3543
39.702651 88.494 61.3511
39.990353 88.529 61.2831
40.280140 88.578 61.0904
40.572026 88.633 60.7335
40.866028 88.687 60.1980
41.162160 88.732 59.4915
41.460438 88.763 58.6387
41.760877 88.775 57.6767
42.063494 88.765 56.6526
42.368303 88.731 55.6216
42.675322 88.676 54.6443
42.984565 88.602 53.7806
43.296048 88.519 53.0815
43.609789 88.437 52.5786
43.925804 88.366 52.2758
44.244108 88.317 52.1474
44.564719 88.297 52.1440
44.887654 88.307 52.2054
45.212928 88.346 52.2746
45.540560 88.406 52.3082
45.870565 88.482 52.2812
46.202962 88.565 52.1861
46.537768 88.650 52.0294
46.875000 88.731 51.8272
47.214676 88.807 51.5988
47.556813 88.877 51.3605
47.901429 88.941 51.1191
48.248542 89.001 50.8693
48.598171 89.057 50.5975
48.950334 89.107 50.2890
49.305048 89.148 49.9383
49.662333 89.178 49.5528
50.022206 89.196 49.1512
50.384688 89.202 48.7540
50.749796 89.200 48.3749
51.117550 89.193 48.0157
51.487969 89.186 47.6693
51.861072 89.179 47.3275
52.236879 89.172 46.9874
52.615409 89.167 46.6530
52.996681 89.165 46.3295
53.380717 89.168 46.0164
53.767536 89.179 45.7038
54.157158 89.198 45.3766
54.549603 89.222 45.0223
54.944892 89.248 44.6403
55.343045 89.271 44.2450
55.744084 89.291 43.8613
56.148028 89.308 43.5146
56.554900 89.323 43.2195
56.964720 89.341 42.9742
57.377510 89.361 42.7631
57.793291 89.384 42.5688
58.212085 89.405 42.3839
58.633914 89.424 42.2147
59.058799 89.439 42.0735
59.486764 89.454 41.9664
59.917829 89.471 41.8835
60.352019 89.492 41.8029
60.789354 89.515 41.7009
61.229859 89.539 41.5619
61.673556 89.562 41.3814
62.120468 89.582 41.1622
62.570618 89.598 40.9108
63.024031 89.609 40.6369
63.480729 89.616 40.3519
63.940736 89.620 40.0656
64.404077 89.623 39.7816
64.870776 89.626 39.4987
65.340856 89.629 39.2163
65.814343 89.631 38.9403
66.291261 89.633 38.6810
66.771635 89.638 38.4448
67.255489 89.647 38.2257
67.742850 89.661 38.0065
68.233743 89.679 37.7672
68.728193 89.698 37.4958
69.226226 89.715 37.1954
69.727867 89.725 36.8831
70.233144 89.730 36.5827
70.742083 89.731 36.3134
71.254709 89.731 36.0790
71.771050 89.735 35.8651
72.291132 89.744 35.6442
72.814984 89.757 35.3885
73.342631 89.769 35.0837
73.874102 89.776 34.7392
74.409424 89.776 34.3865
74.948626 89.770 34.0654
75.491734 89.763 33.8022
76.038779 89.762 33.5952
76.589787 89.770 33.4184
77.144788 89.788 33.2391
77.703811 89.812 33.0367
78.266885 89.837 32.8097
78.834039 89.861 32.5712
79.405303 89.883 32.3386
79.980706 89.902 32.1256
80.560280 89.919 31.9380
81.144053 89.936 31.7722
81.732056 89.952 31.6159
82.324320 89.967 31.4541
82.920876 89.978 31.2793
83.521755 89.984 31.0976
84.126988 89.984 30.9235
84.736607 89.980 30.7709
85.350643 89.974 30.6462
85.969129 89.971 30.5441
86.592097 89.972 30.4501
87.219579 89.978 30.3487
87.851608 89.990 30.2270
88.488217 90.008 30.0701
89.129439 90.028 29.8635
89.775308 90.047 29.6107
90.425856 90.063 29.3345
91.081119 90.076 29.0507
91.741131 90.087 28.7557
92.405925 90.093 28.4505
93.075536 90.091 28.1582
93.750000 90.085 27.9044
94.429351 90.076 27.6959
95.113625 90.066 27.5264
95.802858 90.057 27.3868
96.497085 90.050 27.2645
97.196342 90.043 27.1420
97.900667 90.037 27.0075
98.610096 90.029 26.8621
99.324665 90.019 26.7134
100.044413 90.009 26.5630
100.769376 90.000 26.4065
101.499592 89.991 26.2471
102.235100 89.983 26.0945
102.975938 89.980 25.9442
103.722144 89.982 25.7762
104.473757 89.986 25.5836
105.230817 89.989 25.3889
105.993363 89.994 25.2159
106.761435 90.004 25.0538
107.535072 90.020 24.8697
