* Measurement data measured by REW V5.31.3
* Source: Headset (CX31993 HIFI AUDIO), MICROPHONE (Master Volume), R, volume: 0.400
* Format: 256k Log Swept Sine, 1 sweep at -12.0 dBFS with no timing reference
* Dated: 03 3, 25 6:29:31 PM
* REW Settings:
*  C-weighting compensation: Off
*  Target level: 75.0 dB
* Note: ; 
* Measurement: Melobuds Pro FLAT R
* Smoothing: 1/12 octave
* Frequency Step: 96 ppo
* Start Frequency: 0.36621094 Hz
*
* Freq(Hz) SPL(dB) Phase(degrees)
0.366211 51.066 75.4505
0.368865 51.093 75.3167
0.371538 51.132 75.1185
0.374230 51.181 74.8731
0.376942 51.236 74.5956
0.379673 51.295 74.2970
0.382424 51.356 73.9845
0.385196 51.419 73.6626
0.387987 51.482 73.3338
0.390798 51.547 72.9997
0.393630 51.612 72.6612
0.396483 51.678 72.3187
0.399356 51.744 71.9726
0.402250 51.811 71.6230
0.405165 51.878 71.2700
0.408101 51.946 70.9139
0.411058 52.014 70.5546
0.414037 52.083 70.1924
0.417037 52.152 69.8273
0.420059 52.222 69.4595
0.423103 52.292 69.0890
0.426169 52.363 68.7159
0.429257 52.434 68.3403
0.432368 52.506 67.9625
0.435501 52.578 67.5823
0.438656 52.651 67.2000
0.441835 52.724 66.8157
0.445037 52.798 66.4295
0.448262 52.873 66.0414
0.451510 52.948 65.6516
0.454782 53.023 65.2601
0.458077 53.099 64.8671
0.461397 53.176 64.4726
0.464740 53.253 64.0768
0.468108 53.331 63.6797
0.471500 53.409 63.2814
0.474917 53.488 62.8820
0.478358 53.567 62.4816
0.481825 53.647 62.0802
0.485316 53.728 61.6780
0.488833 53.809 61.2750
0.492375 53.891 60.8712
0.495943 53.973 60.4668
0.499537 54.056 60.0617
0.503157 54.139 59.6561
0.506803 54.223 59.2500
0.510475 54.308 58.8434
0.514175 54.394 58.4364
0.517900 54.480 58.0290
0.521653 54.566 57.6213
0.525434 54.653 57.2133
0.529241 54.741 56.8049
0.533076 54.830 56.3963
0.536939 54.919 55.9874
0.540830 55.009 55.5783
0.544749 55.099 55.1690
0.548696 55.190 54.7594
0.552673 55.282 54.3495
0.556677 55.375 53.9394
0.560711 55.468 53.5291
0.564774 55.561 53.1185
0.568867 55.656 52.7076
0.572989 55.751 52.2964
0.577141 55.847 51.8848
0.581324 55.943 51.4729
0.585536 56.041 51.0605
0.589779 56.139 50.6477
0.594053 56.237 50.2344
0.598358 56.337 49.8206
0.602694 56.437 49.4061
0.607061 56.538 48.9910
0.611460 56.639 48.5752
0.615891 56.741 48.1585
0.620354 56.844 47.7411
0.624849 56.948 47.3226
0.629377 57.053 46.9032
0.633938 57.158 46.4827
0.638532 57.264 46.0610
0.643159 57.371 45.6381
0.647819 57.479 45.2138
0.652514 57.587 44.7880
0.657242 57.696 44.3607
0.662005 57.806 43.9318
0.666802 57.917 43.5011
0.671634 58.028 43.0685
0.676501 58.141 42.6340
0.681403 58.254 42.1974
0.686341 58.368 41.7586
0.691314 58.483 41.3175
0.696324 58.598 40.8740
0.701370 58.714 40.4280
0.706452 58.831 39.9795
0.711571 58.948 39.5284
0.716728 59.065 39.0749
0.721921 59.182 38.6191
0.727153 59.297 38.1616
0.732422 59.412 37.7030
0.737729 59.524 37.2439
0.743075 59.636 36.7854
0.748460 59.746 36.3281
0.753883 59.855 35.8725
0.759346 59.964 35.4190
0.764849 60.073 34.9679
0.770391 60.182 34.5193
0.775974 60.292 34.0734
0.781597 60.401 33.6301
0.787261 60.511 33.1896
0.792966 60.621 32.7517
0.798712 60.731 32.3165
0.804500 60.841 31.8840
0.810329 60.952 31.4541
0.816201 61.063 31.0268
0.822116 61.174 30.6019
0.828073 61.285 30.1796
0.834074 61.397 29.7596
0.840118 61.509 29.3418
0.846206 61.621 28.9263
0.852338 61.733 28.5129
0.858514 61.845 28.1014
0.864735 61.958 27.6918
0.871001 62.071 27.2840
0.877313 62.184 26.8778
0.883670 62.298 26.4731
0.890074 62.412 26.0698
0.896524 62.526 25.6676
0.903020 62.640 25.2666
0.909564 62.754 24.8665
0.916155 62.869 24.4671
0.922794 62.984 24.0683
0.929481 63.099 23.6700
0.936216 63.214 23.2719
0.943000 63.330 22.8739
0.949834 63.446 22.4758
0.956717 63.562 22.0775
0.963649 63.678 21.6786
0.970632 63.795 21.2792
0.977666 63.912 20.8788
0.984750 64.029 20.4775
0.991886 64.146 20.0749
0.999074 64.264 19.6708
1.006314 64.382 19.2651
1.013606 64.500 18.8575
1.020951 64.619 18.4479
1.028349 64.737 18.0359
1.035801 64.856 17.6214
1.043307 64.976 17.2042
1.050867 65.095 16.7841
1.058482 65.215 16.3609
1.066152 65.336 15.9344
1.073878 65.456 15.5046
1.081660 65.577 15.0715
1.089498 65.698 14.6353
1.097393 65.819 14.1961
1.105345 65.940 13.7547
1.113355 66.062 13.3114
1.121423 66.183 12.8668
1.129549 66.304 12.4212
1.137734 66.426 11.9750
1.145979 66.547 11.5285
1.154283 66.668 11.0817
1.162647 66.789 10.6349
1.171072 66.910 10.1880
1.179558 67.031 9.7411
1.188106 67.152 9.2943
1.196715 67.273 8.8477
1.205387 67.393 8.4012
1.214122 67.514 7.9549
1.222920 67.635 7.5088
1.231782 67.755 7.0628
1.240708 67.876 6.6170
1.249699 67.997 6.1714
1.258754 68.117 5.7259
1.267876 68.238 5.2805
1.277063 68.358 4.8352
1.286318 68.479 4.3898
1.295639 68.599 3.9445
1.305027 68.720 3.4990
1.314484 68.841 3.0534
1.324009 68.961 2.6075
1.333604 69.082 2.1613
1.343268 69.203 1.7147
1.353002 69.324 1.2676
1.362806 69.445 0.8199
1.372681 69.566 0.3715
1.382628 69.687 -0.0777
1.392647 69.809 -0.5278
1.402739 69.930 -0.9790
1.412904 70.052 -1.4313
1.423142 70.174 -1.8848
1.433455 70.296 -2.3395
1.443843 70.419 -2.7954
1.454305 70.541 -3.2525
1.464844 70.664 -3.7104
1.475459 70.786 -4.1689
1.486150 70.909 -4.6276
1.496920 71.031 -5.0865
1.507767 71.153 -5.5451
1.518693 71.275 -6.0036
1.529698 71.397 -6.4618
1.540783 71.518 -6.9198
1.551948 71.639 -7.3777
1.563194 71.760 -7.8356
1.574521 71.881 -8.2936
1.585931 72.001 -8.7519
1.597423 72.122 -9.2106
1.608999 72.242 -9.6699
1.620658 72.362 -10.1299
1.632402 72.481 -10.5909
1.644232 72.601 -11.0530
1.656146 72.720 -11.5165
1.668147 72.839 -11.9816
1.680235 72.958 -12.4484
1.692411 73.077 -12.9174
1.704675 73.196 -13.3885
1.717028 73.314 -13.8623
1.729470 73.433 -14.3388
1.742003 73.551 -14.8185
1.754626 73.670 -15.3014
1.767341 73.788 -15.7880
1.780147 73.906 -16.2785
1.793047 74.025 -16.7732
1.806040 74.143 -17.2722
1.819128 74.261 -17.7757
1.832310 74.379 -18.2837
1.845587 74.497 -18.7962
1.858961 74.614 -19.3129
1.872432 74.731 -19.8336
1.886001 74.848 -20.3580
1.899667 74.964 -20.8857
1.913433 75.080 -21.4164
1.927299 75.195 -21.9499
1.941265 75.310 -22.4858
1.955332 75.424 -23.0238
1.969501 75.538 -23.5637
1.983773 75.652 -24.1054
1.998148 75.765 -24.6485
2.012627 75.878 -25.1931
2.027212 75.991 -25.7388
2.041902 76.103 -26.2857
2.056698 76.215 -26.8336
2.071602 76.326 -27.3825
2.086614 76.437 -27.9324
2.101734 76.548 -28.4833
2.116964 76.659 -29.0352
2.132304 76.769 -29.5884
2.147756 76.879 -30.1431
2.163320 76.989 -30.6995
2.178996 77.098 -31.2580
2.194786 77.207 -31.8192
2.210690 77.315 -32.3836
2.226710 77.423 -32.9515
2.242845 77.531 -33.5233
2.259098 77.638 -34.0989
2.275468 77.744 -34.6781
2.291957 77.849 -35.2606
2.308566 77.954 -35.8460
2.325295 78.059 -36.4339
2.342145 78.162 -37.0239
2.359117 78.265 -37.6155
2.376212 78.368 -38.2085
2.393431 78.470 -38.8023
2.410775 78.571 -39.3967
2.428244 78.672 -39.9913
2.445840 78.772 -40.5860
2.463564 78.871 -41.1805
2.481416 78.971 -41.7748
2.499397 79.069 -42.3688
2.517509 79.168 -42.9628
2.535752 79.265 -43.5571
2.554127 79.362 -44.1524
2.572635 79.459 -44.7494
2.591277 79.555 -45.3490
2.610055 79.650 -45.9517
2.628968 79.744 -46.5577
2.648019 79.837 -47.1672
2.667208 79.930 -47.7796
2.686535 80.022 -48.3947
2.706003 80.112 -49.0119
2.725612 80.203 -49.6305
2.745363 80.292 -50.2501
2.765257 80.381 -50.8699
2.785295 80.469 -51.4896
2.805478 80.556 -52.1084
2.825808 80.642 -52.7260
2.846285 80.728 -53.3421
2.866910 80.814 -53.9565
2.887685 80.898 -54.5694
2.908611 80.982 -55.1810
2.929688 81.066 -55.7923
2.950917 81.148 -56.4039
2.972301 81.230 -57.0169
2.993839 81.311 -57.6318
3.015534 81.391 -58.2487
3.037386 81.469 -58.8675
3.059396 81.547 -59.4877
3.081565 81.625 -60.1089
3.103896 81.701 -60.7304
3.126388 81.776 -61.3513
3.149043 81.851 -61.9711
3.171862 81.925 -62.5889
3.194847 81.998 -63.2043
3.217998 82.071 -63.8166
3.241317 82.143 -64.4257
3.264805 82.214 -65.0315
3.288463 82.285 -65.6345
3.312293 82.355 -66.2354
3.336295 82.424 -66.8348
3.360471 82.492 -67.4336
3.384822 82.559 -68.0321
3.409350 82.626 -68.6302
3.434056 82.691 -69.2278
3.458940 82.756 -69.8244
3.484005 82.820 -70.4197
3.509252 82.883 -71.0129
3.534681 82.946 -71.6036
3.560295 83.008 -72.1911
3.586094 83.070 -72.7751
3.612081 83.131 -73.3553
3.638255 83.191 -73.9316
3.664620 83.251 -74.5042
3.691175 83.311 -75.0737
3.717923 83.370 -75.6406
3.744864 83.428 -76.2052
3.772001 83.485 -76.7678
3.799335 83.542 -77.3284
3.826866 83.598 -77.8869
3.854597 83.654 -78.4429
3.882529 83.709 -78.9963
3.910664 83.763 -79.5466
3.939002 83.818 -80.0936
3.967546 83.872 -80.6370
3.996296 83.925 -81.1767
4.025255 83.979 -81.7126
4.054423 84.032 -82.2450
4.083804 84.085 -82.7742
4.113396 84.137 -83.3003
4.143204 84.189 -83.8237
4.173227 84.241 -84.3445
4.203468 84.292 -84.8628
4.233928 84.343 -85.3787
4.264609 84.393 -85.8922
4.295512 84.444 -86.4034
4.326639 84.494 -86.9123
4.357992 84.544 -87.4188
4.389572 84.594 -87.9230
4.421380 84.644 -88.4249
4.453419 84.694 -88.9248
4.485691 84.744 -89.4226
4.518196 84.793 -89.9186
4.550936 84.842 -90.4129
4.583914 84.891 -90.9057
4.617131 84.940 -91.3971
4.650589 84.988 -91.8873
4.684289 85.036 -92.3764
4.718233 85.085 -92.8647
4.752424 85.132 -93.3521
4.786862 85.180 -93.8388
4.821549 85.228 -94.3249
4.856488 85.275 -94.8104
4.891680 85.322 -95.2953
4.927127 85.369 -95.7798
4.962831 85.416 -96.2637
4.998794 85.462 -96.7473
5.035017 85.508 -97.2304
5.071503 85.554 -97.7133
5.108253 85.599 -98.1961
5.145270 85.644 -98.6789
5.182555 85.689 -99.1617
5.220110 85.733 -99.6447
5.257937 85.776 -100.1277
5.296038 85.820 -100.6106
5.334415 85.863 -101.0933
5.373071 85.905 -101.5755
5.412006 85.947 -102.0571
5.451224 85.988 -102.5380
5.490725 86.029 -103.0183
5.530514 86.069 -103.4980
5.570590 86.108 -103.9772
5.610957 86.148 -104.4559
5.651616 86.186 -104.9339
5.692570 86.224 -105.4109
5.733821 86.261 -105.8866
5.775370 86.298 -106.3608
5.817221 86.334 -106.8331
5.859375 86.369 -107.3036
5.901834 86.404 -107.7722
5.944602 86.439 -108.2390
5.987679 86.472 -108.7039
6.031068 86.506 -109.1669
6.074771 86.538 -109.6278
6.118792 86.570 -110.0863
6.163131 86.602 -110.5422
6.207792 86.633 -110.9955
6.252776 86.664 -111.4459
6.298086 86.694 -111.8937
6.343725 86.724 -112.3388
6.389694 86.754 -112.7812
6.435996 86.783 -113.2211
6.482634 86.812 -113.6584
6.529610 86.840 -114.0930
6.576926 86.868 -114.5251
6.624585 86.896 -114.9545
6.672590 86.924 -115.3814
6.720942 86.951 -115.8058
6.769645 86.978 -116.2279
6.818700 87.005 -116.6479
6.868111 87.031 -117.0659
6.917881 87.058 -117.4820
6.968010 87.084 -117.8963
7.018504 87.110 -118.3090
7.069362 87.136 -118.7200
7.120590 87.161 -119.1295
7.172189 87.186 -119.5376
7.224161 87.211 -119.9443
7.276511 87.236 -120.3498
7.329239 87.261 -120.7541
7.382350 87.285 -121.1573
7.435845 87.309 -121.5594
7.489729 87.332 -121.9604
7.544002 87.356 -122.3601
7.598669 87.378 -122.7585
7.653732 87.401 -123.1556
7.709194 87.423 -123.5513
7.765058 87.445 -123.9456
7.821327 87.466 -124.3383
7.878004 87.487 -124.7294
7.935091 87.508 -125.1187
7.992592 87.529 -125.5059
8.050510 87.548 -125.8910
8.108847 87.568 -126.2739
8.167607 87.587 -126.6545
8.226793 87.606 -127.0327
8.286408 87.625 -127.4086
8.346454 87.644 -127.7819
8.406936 87.662 -128.1528
8.467856 87.680 -128.5212
8.529218 87.698 -128.8871
8.591024 87.716 -129.2506
8.653278 87.734 -129.6120
8.715983 87.752 -129.9715
8.779143 87.770 -130.3291
8.842760 87.788 -130.6852
8.906839 87.806 -131.0399
8.971381 87.824 -131.3934
9.036392 87.842 -131.7461
9.101873 87.860 -132.0983
9.167829 87.878 -132.4503
9.234263 87.896 -132.8024
9.301178 87.914 -133.1546
9.368578 87.932 -133.5073
9.436467 87.950 -133.8605
9.504847 87.967 -134.2144
9.573723 87.985 -134.5691
9.643099 88.002 -134.9245
9.712976 88.019 -135.2806
9.783361 88.035 -135.6371
9.854255 88.051 -135.9939
9.925663 88.067 -136.3506
9.997588 88.082 -136.7071
10.070035 88.096 -137.0629
10.143007 88.110 -137.4176
10.216507 88.123 -137.7707
10.290540 88.136 -138.1217
10.365109 88.148 -138.4702
10.440219 88.160 -138.8159
10.515873 88.171 -139.1584
10.592076 88.182 -139.4971
10.668830 88.193 -139.8319
10.746141 88.203 -140.1626
10.824012 88.213 -140.4890
10.902447 88.223 -140.8112
10.981451 88.233 -141.1293
11.061027 88.243 -141.4435
11.141180 88.253 -141.7538
11.221913 88.264 -142.0609
11.303232 88.275 -142.3652
11.385140 88.286 -142.6671
11.467641 88.297 -142.9672
11.550741 88.309 -143.2660
11.634442 88.321 -143.5640
11.718750 88.333 -143.8618
11.803669 88.346 -144.1599
11.889203 88.359 -144.4585
11.975357 88.371 -144.7579
12.062136 88.384 -145.0582
12.149543 88.397 -145.3595
12.237583 88.409 -145.6616
12.326262 88.421 -145.9643
12.415583 88.432 -146.2672
12.505552 88.444 -146.5698
12.596172 88.454 -146.8717
12.687449 88.464 -147.1722
12.779387 88.474 -147.4707
12.871992 88.483 -147.7666
12.965268 88.492 -148.0595
13.059220 88.500 -148.3488
13.153852 88.508 -148.6342
13.249170 88.516 -148.9154
13.345179 88.524 -149.1924
13.441884 88.532 -149.4653
13.539289 88.540 -149.7342
13.637401 88.548 -149.9995
13.736223 88.556 -150.2617
13.835761 88.564 -150.5214
13.936021 88.573 -150.7793
14.037007 88.583 -151.0359
14.138725 88.592 -151.2919
14.241180 88.602 -151.5481
14.344377 88.612 -151.8048
14.448323 88.622 -152.0625
14.553021 88.632 -152.3214
14.658478 88.642 -152.5819
14.764700 88.652 -152.8438
14.871691 88.661 -153.1071
14.979457 88.671 -153.3715
15.088005 88.679 -153.6368
15.197339 88.688 -153.9026
15.307465 88.695 -154.1687
15.418389 88.703 -154.4345
15.530117 88.710 -154.6999
15.642655 88.716 -154.9646
15.756008 88.722 -155.2285
15.870182 88.727 -155.4913
15.985184 88.732 -155.7530
16.101019 88.737 -156.0136
16.217694 88.741 -156.2730
16.335214 88.745 -156.5311
16.453586 88.748 -156.7879
16.572815 88.751 -157.0430
16.692909 88.753 -157.2962
16.813872 88.754 -157.5472
16.935713 88.756 -157.7955
17.058436 88.756 -158.0407
17.182048 88.757 -158.2824
17.306556 88.757 -158.5201
17.431967 88.757 -158.7538
17.558286 88.756 -158.9834
17.685521 88.756 -159.2090
17.813677 88.756 -159.4312
17.942762 88.757 -159.6506
18.072783 88.758 -159.8681
18.203746 88.759 -160.0847
18.335658 88.761 -160.3016
18.468526 88.763 -160.5198
18.602356 88.765 -160.7400
18.737156 88.768 -160.9629
18.872934 88.770 -161.1887
19.009695 88.773 -161.4173
19.147447 88.774 -161.6480
19.286197 88.776 -161.8801
19.425953 88.776 -162.1123
19.566721 88.776 -162.3434
19.708510 88.776 -162.5722
19.851326 88.775 -162.7976
19.995177 88.774 -163.0190
20.140070 88.773 -163.2362
20.286013 88.772 -163.4496
20.433014 88.772 -163.6602
20.581080 88.773 -163.8692
20.730219 88.774 -164.0784
20.880439 88.776 -164.2897
21.031747 88.779 -164.5047
21.184152 88.782 -164.7250
21.337661 88.785 -164.9514
21.492282 88.788 -165.1842
21.648024 88.790 -165.4230
21.804895 88.792 -165.6667
21.962902 88.792 -165.9135
22.122054 88.791 -166.1615
22.282360 88.788 -166.4081
22.443827 88.784 -166.6512
22.606464 88.779 -166.8885
22.770280 88.772 -167.1181
22.935283 88.765 -167.3387
23.101481 88.758 -167.5493
23.268884 88.750 -167.7495
23.437500 88.743 -167.9394
23.607338 88.736 -168.1194
23.778406 88.730 -168.2903
23.950714 88.725 -168.4534
24.124271 88.721 -168.6102
24.299086 88.718 -168.7625
24.475167 88.717 -168.9126
24.652524 88.718 -169.0627
24.831166 88.720 -169.2152
25.011103 88.723 -169.3725
25.192344 88.728 -169.5369
25.374898 88.733 -169.7100
25.558775 88.738 -169.8929
25.743984 88.743 -170.0862
25.930536 88.748 -170.2894
26.118439 88.751 -170.5011
26.307704 88.753 -170.7195
26.498341 88.754 -170.9416
26.690359 88.752 -171.1642
26.883768 88.748 -171.3839
27.078579 88.742 -171.5969
27.274801 88.735 -171.8000
27.472446 88.727 -171.9908
27.671522 88.718 -172.1678
27.872042 88.710 -172.3315
28.074014 88.703 -172.4840
28.277450 88.698 -172.6299
28.482360 88.695 -172.7753
28.688755 88.693 -172.9273
28.896645 88.693 -173.0926
29.106042 88.694 -173.2765
29.316957 88.693 -173.4806
29.529400 88.689 -173.7022
29.743382 88.681 -173.9336
29.958915 88.667 -174.1627
30.176009 88.647 -174.3746
30.394677 88.623 -174.5543
30.614929 88.596 -174.6899
30.836778 88.570 -174.7755
31.060234 88.548 -174.8136
31.285309 88.531 -174.8162
31.512015 88.524 -174.8022
31.740364 88.525 -174.7951
31.970368 88.535 -174.8174
32.202039 88.549 -174.8858
32.435388 88.565 -175.0082
32.670428 88.580 -175.1818
32.907171 88.590 -175.3953
33.145630 88.594 -175.6316
33.385817 88.592 -175.8727
33.627745 88.586 -176.1036
33.871425 88.576 -176.3158
34.116871 88.566 -176.5081
34.364096 88.557 -176.6857
34.613113 88.550 -176.8571
34.863934 88.545 -177.0311
35.116572 88.541 -177.2135
35.371041 88.536 -177.4055
35.627354 88.530 -177.6045
35.885525 88.523 -177.8055
36.145566 88.514 -178.0035
36.407492 88.505 -178.1957
36.671316 88.497 -178.3821
36.937051 88.488 -178.5654
37.204712 88.481 -178.7496
37.474313 88.474 -178.9385
37.745867 88.467 -179.1340
38.019389 88.458 -179.3360
38.294893 88.449 -179.5422
38.572394 88.437 -179.7487
38.851905 88.422 -179.9501
39.133442 88.405 179.8604
39.417019 88.386 179.6902
39.702651 88.365 179.5476
39.990353 88.343 179.4392
40.280140 88.324 179.3676
40.572026 88.309 179.3292
40.866028 88.299 179.3125
41.162160 88.298 179.3000
41.460438 88.303 179.2715
41.760877 88.313 179.2104
42.063494 88.325 179.1089
42.368303 88.336 178.9699
42.675322 88.344 178.8057
42.984565 88.347 178.6324
43.296048 88.348 178.4633
43.609789 88.348 178.3031
43.925804 88.348 178.1470
44.244108 88.350 177.9836
44.564719 88.351 177.8020
44.887654 88.351 177.5983
45.212928 88.346 177.3787
45.540560 88.335 177.1578
45.870565 88.320 176.9527
46.202962 88.301 176.7756
46.537768 88.281 176.6295
46.875000 88.263 176.5070
47.214676 88.248 176.3951
47.556813 88.236 176.2809
47.901429 88.225 176.1567
48.248542 88.214 176.0213
48.598171 88.203 175.8781
48.950334 88.191 175.7317
49.305048 88.179 175.5851
49.662333 88.167 175.4393
50.022206 88.155 175.2943
50.384688 88.143 175.1505
50.749796 88.132 175.0089
51.117550 88.121 174.8702
51.487969 88.111 174.7336
51.861072 88.102 174.5963
52.236879 88.094 174.4554
52.615409 88.085 174.3095
52.996681 88.076 174.1607
53.380717 88.065 174.0143
53.767536 88.052 173.8758
54.157158 88.039 173.7480
54.549603 88.027 173.6291
54.944892 88.015 173.5135
55.343045 88.003 173.3946
55.744084 87.992 173.2684
56.148028 87.980 173.1346
56.554900 87.967 172.9952
56.964720 87.953 172.8524
57.377510 87.939 172.7066
57.793291 87.925 172.5569
58.212085 87.910 172.4026
58.633914 87.896 172.2451
59.058799 87.881 172.0880
59.486764 87.866 171.9359
59.917829 87.851 171.7927
60.352019 87.837 171.6595
60.789354 87.823 171.5352
61.229859 87.810 171.4180
61.673556 87.797 171.3080
62.120468 87.783 171.2081
62.570618 87.767 171.1215
63.024031 87.749 171.0502
63.480729 87.729 170.9935
63.940736 87.707 170.9490
64.404077 87.682 170.9136
64.870776 87.655 170.8833
65.340856 87.625 170.8552
65.814343 87.592 170.8322
66.291261 87.555 170.8275
66.771635 87.518 170.8578
67.255489 87.487 170.9255
67.742850 87.468 170.9999
68.233743 87.465 171.0219
68.728193 87.473 170.9352
69.226226 87.484 170.7218
69.727867 87.488 170.4109
70.233144 87.484 170.0573
70.742083 87.473 169.7088
71.254709 87.458 169.3902
71.771050 87.444 169.1072
72.291132 87.430 168.8583
72.814984 87.417 168.6410
73.342631 87.406 168.4514
73.874102 87.395 168.2852
74.409424 87.382 168.1385
74.948626 87.368 168.0097
75.491734 87.352 167.8970
76.038779 87.334 167.7983
76.589787 87.312 167.7116
77.144788 87.290 167.6350
77.703811 87.267 167.5649
78.266885 87.244 167.4951
78.834039 87.222 167.4181
79.405303 87.202 167.3286
79.980706 87.183 167.2258
80.560280 87.163 167.1134
81.144053 87.144 166.9977
81.732056 87.125 166.8849
82.324320 87.106 166.7798
82.920876 87.088 166.6847
83.521755 87.070 166.5984
84.126988 87.052 166.5175
84.736607 87.035 166.4379
85.350643 87.017 166.3558
85.969129 86.999 166.2672
86.592097 86.980 166.1675
87.219579 86.961 166.0529
87.851608 86.940 165.9229
88.488217 86.917 165.7815
89.129439 86.893 165.6362
89.775308 86.867 165.4958
90.425856 86.840 165.3682
91.081119 86.815 165.2571
91.741131 86.791 165.1604
