* Measurement data measured by REW V5.31.3
* Source: Headset (CX31993 HIFI AUDIO), MICROPHONE (Master Volume), R, volume: 0.400
* Format: 256k Log Swept Sine, 1 sweep at -12.0 dBFS with no timing reference
* Dated: 03 3, 25 6:16:26 PM
* REW Settings:
*  C-weighting compensation: Off
*  Target level: 75.0 dB
* Note: ; 
* Measurement: Melobuds Pro Default R
* Smoothing: 1/12 octave
* Frequency Step: 96 ppo
* Start Frequency: 0.36621094 Hz
*
* Freq(Hz) SPL(dB) Phase(degrees)
0.366211 42.159 -176.9700
0.368865 42.164 -176.9840
0.371538 42.171 -177.0047
0.374230 42.179 -177.0304
0.376942 42.189 -177.0597
0.379673 42.199 -177.0913
0.382424 42.210 -177.1245
0.385196 42.221 -177.1589
0.387987 42.233 -177.1943
0.390798 42.244 -177.2304
0.393630 42.256 -177.2673
0.396483 42.268 -177.3048
0.399356 42.279 -177.3431
0.402250 42.291 -177.3820
0.405165 42.303 -177.4215
0.408101 42.315 -177.4618
0.411058 42.328 -177.5027
0.414037 42.340 -177.5444
0.417037 42.352 -177.5867
0.420059 42.365 -177.6298
0.423103 42.377 -177.6736
0.426169 42.390 -177.7181
0.429257 42.402 -177.7634
0.432368 42.415 -177.8095
0.435501 42.428 -177.8563
0.438656 42.441 -177.9039
0.441835 42.454 -177.9523
0.445037 42.467 -178.0016
0.448262 42.481 -178.0516
0.451510 42.494 -178.1025
0.454782 42.507 -178.1542
0.458077 42.521 -178.2068
0.461397 42.535 -178.2602
0.464740 42.548 -178.3145
0.468108 42.562 -178.3698
0.471500 42.576 -178.4259
0.474917 42.590 -178.4829
0.478358 42.604 -178.5409
0.481825 42.619 -178.5999
0.485316 42.633 -178.6598
0.488833 42.648 -178.7207
0.492375 42.662 -178.7826
0.495943 42.677 -178.8455
0.499537 42.692 -178.9094
0.503157 42.706 -178.9744
0.506803 42.721 -179.0404
0.510475 42.737 -179.1076
0.514175 42.752 -179.1758
0.517900 42.767 -179.2451
0.521653 42.783 -179.3156
0.525434 42.798 -179.3872
0.529241 42.814 -179.4600
0.533076 42.830 -179.5340
0.536939 42.845 -179.6093
0.540830 42.861 -179.6857
0.544749 42.878 -179.7634
0.548696 42.894 -179.8424
0.552673 42.910 -179.9227
0.556677 42.927 179.9956
0.560711 42.943 179.9126
0.564774 42.960 179.8282
0.568867 42.977 179.7424
0.572989 42.994 179.6552
0.577141 43.011 179.5665
0.581324 43.028 179.4763
0.585536 43.045 179.3846
0.589779 43.063 179.2914
0.594053 43.080 179.1965
0.598358 43.098 179.1000
0.602694 43.116 179.0019
0.607061 43.134 178.9020
0.611460 43.152 178.8004
0.615891 43.170 178.6971
0.620354 43.189 178.5919
0.624849 43.207 178.4849
0.629377 43.226 178.3760
0.633938 43.244 178.2652
0.638532 43.263 178.1524
0.643159 43.282 178.0375
0.647819 43.302 177.9206
0.652514 43.321 177.8015
0.657242 43.340 177.6802
0.662005 43.360 177.5566
0.666802 43.380 177.4308
0.671634 43.400 177.3026
0.676501 43.420 177.1720
0.681403 43.440 177.0388
0.686341 43.460 176.9031
0.691314 43.480 176.7648
0.696324 43.501 176.6237
0.701370 43.522 176.4798
0.706452 43.542 176.3330
0.711571 43.563 176.1832
0.716728 43.584 176.0303
0.721921 43.604 175.8740
0.727153 43.624 175.7142
0.732422 43.643 175.5507
0.737729 43.661 175.3833
0.743075 43.679 175.2117
0.748460 43.696 175.0358
0.753883 43.712 174.8555
0.759346 43.729 174.6707
0.764849 43.745 174.4813
0.770391 43.761 174.2875
0.775974 43.777 174.0892
0.781597 43.793 173.8866
0.787261 43.810 173.6795
0.792966 43.826 173.4681
0.798712 43.842 173.2524
0.804500 43.858 173.0326
0.810329 43.874 172.8085
0.816201 43.890 172.5804
0.822116 43.906 172.3482
0.828073 43.922 172.1120
0.834074 43.938 171.8719
0.840118 43.953 171.6280
0.846206 43.969 171.3803
0.852338 43.984 171.1289
0.858514 44.000 170.8738
0.864735 44.015 170.6152
0.871001 44.030 170.3531
0.877313 44.045 170.0876
0.883670 44.060 169.8188
0.890074 44.075 169.5467
0.896524 44.089 169.2715
0.903020 44.103 168.9931
0.909564 44.117 168.7117
0.916155 44.131 168.4273
0.922794 44.145 168.1401
0.929481 44.158 167.8502
0.936216 44.171 167.5574
0.943000 44.184 167.2621
0.949834 44.196 166.9642
0.956717 44.208 166.6638
0.963649 44.220 166.3610
0.970632 44.231 166.0559
0.977666 44.242 165.7485
0.984750 44.253 165.4389
0.991886 44.263 165.1272
0.999074 44.272 164.8134
1.006314 44.281 164.4977
1.013606 44.290 164.1799
1.020951 44.298 163.8603
1.028349 44.306 163.5389
1.035801 44.313 163.2156
1.043307 44.319 162.8906
1.050867 44.325 162.5637
1.058482 44.330 162.2349
1.066152 44.334 161.9041
1.073878 44.338 161.5710
1.081660 44.341 161.2351
1.089498 44.344 160.8956
1.097393 44.346 160.5515
1.105345 44.347 160.2015
1.113355 44.347 159.8443
1.121423 44.348 159.4789
1.129549 44.347 159.1046
1.137734 44.347 158.7207
1.145979 44.345 158.3272
1.154283 44.344 157.9240
1.162647 44.341 157.5111
1.171072 44.338 157.0887
1.179558 44.335 156.6569
1.188106 44.331 156.2159
1.196715 44.326 155.7661
1.205387 44.321 155.3076
1.214122 44.314 154.8406
1.222920 44.307 154.3657
1.231782 44.300 153.8830
1.240708 44.291 153.3929
1.249699 44.281 152.8958
1.258754 44.271 152.3920
1.267876 44.259 151.8820
1.277063 44.247 151.3662
1.286318 44.233 150.8451
1.295639 44.218 150.3192
1.305027 44.202 149.7889
1.314484 44.185 149.2549
1.324009 44.166 148.7178
1.333604 44.146 148.1780
1.343268 44.124 147.6362
1.353002 44.101 147.0932
1.362806 44.076 146.5496
1.372681 44.050 146.0060
1.382628 44.022 145.4633
1.392647 43.992 144.9222
1.402739 43.961 144.3833
1.412904 43.927 143.8472
1.423142 43.892 143.3143
1.433455 43.855 142.7847
1.443843 43.816 142.2579
1.454305 43.775 141.7328
1.464844 43.732 141.2073
1.475459 43.689 140.6789
1.486150 43.644 140.1448
1.496920 43.598 139.6025
1.507767 43.552 139.0506
1.518693 43.504 138.4877
1.529698 43.456 137.9135
1.540783 43.406 137.3277
1.551948 43.355 136.7304
1.563194 43.303 136.1219
1.574521 43.249 135.5025
1.585931 43.193 134.8728
1.597423 43.134 134.2333
1.608999 43.073 133.5848
1.620658 43.009 132.9279
1.632402 42.942 132.2637
1.644232 42.872 131.5931
1.656146 42.798 130.9172
1.668147 42.719 130.2372
1.680235 42.637 129.5544
1.692411 42.549 128.8705
1.704675 42.457 128.1870
1.717028 42.359 127.5056
1.729470 42.255 126.8285
1.742003 42.145 126.1575
1.754626 42.028 125.4948
1.767341 41.904 124.8426
1.780147 41.772 124.2027
1.793047 41.632 123.5766
1.806040 41.483 122.9649
1.819128 41.323 122.3670
1.832310 41.152 121.7808
1.845587 40.968 121.2028
1.858961 40.772 120.6292
1.872432 40.561 120.0565
1.886001 40.336 119.4823
1.899667 40.097 118.9051
1.913433 39.845 118.3242
1.927299 39.581 117.7398
1.941265 39.306 117.1527
1.955332 39.020 116.5643
1.969501 38.726 115.9763
1.983773 38.425 115.3911
1.998148 38.117 114.8120
2.012627 37.805 114.2426
2.027212 37.491 113.6876
2.041902 37.176 113.1526
2.056698 36.862 112.6447
2.071602 36.550 112.1721
2.086614 36.244 111.7449
2.101734 35.944 111.3748
2.116964 35.654 111.0760
2.132304 35.375 110.8650
2.147756 35.108 110.7610
2.163320 34.855 110.7856
2.178996 34.615 110.9634
2.194786 34.389 111.3220
2.210690 34.174 111.8930
2.226710 33.967 112.7147
2.242845 33.768 113.8351
2.259098 33.574 115.3167
2.275468 33.385 117.2403
2.291957 33.203 119.7096
2.308566 33.027 122.8547
2.325295 32.860 126.8318
2.342145 32.704 131.8119
2.359117 32.561 137.9471
2.376212 32.433 145.3005
2.393431 32.324 153.7429
2.410775 32.235 162.8707
2.428244 32.170 172.0475
2.445840 32.133 -179.3944
2.463564 32.127 -171.9276
2.481416 32.156 -165.7437
2.499397 32.223 -160.8126
2.517509 32.335 -156.9875
2.535752 32.495 -154.0844
2.554127 32.709 -151.9240
2.572635 32.979 -150.3488
2.591277 33.309 -149.2292
2.610055 33.699 -148.4648
2.628968 34.144 -147.9812
2.648019 34.641 -147.7236
2.667208 35.181 -147.6523
2.686535 35.759 -147.7376
2.706003 36.365 -147.9572
2.725612 36.991 -148.2944
2.745363 37.629 -148.7363
2.765257 38.272 -149.2735
2.785295 38.911 -149.8989
2.805478 39.538 -150.6076
2.825808 40.147 -151.3963
2.846285 40.732 -152.2628
2.866910 41.288 -153.2056
2.887685 41.811 -154.2233
2.908611 42.300 -155.3136
2.929688 42.755 -156.4726
2.950917 43.179 -157.6943
2.972301 43.576 -158.9706
2.993839 43.947 -160.2925
3.015534 44.298 -161.6510
3.037386 44.629 -163.0381
3.059396 44.944 -164.4474
3.081565 45.244 -165.8737
3.103896 45.532 -167.3138
3.126388 45.810 -168.7660
3.149043 46.079 -170.2299
3.171862 46.342 -171.7065
3.194847 46.601 -173.1980
3.217998 46.856 -174.7079
3.241317 47.110 -176.2404
3.264805 47.362 -177.8003
3.288463 47.613 -179.3921
3.312293 47.861 178.9811
3.336295 48.106 177.3184
3.360471 48.347 175.6221
3.384822 48.582 173.8970
3.409350 48.812 172.1490
3.434056 49.037 170.3846
3.458940 49.257 168.6096
3.484005 49.472 166.8287
3.509252 49.683 165.0452
3.534681 49.891 163.2607
3.560295 50.096 161.4753
3.586094 50.298 159.6870
3.612081 50.498 157.8917
3.638255 50.696 156.0842
3.664620 50.892 154.2584
3.691175 51.085 152.4090
3.717923 51.275 150.5333
3.744864 51.462 148.6323
3.772001 51.646 146.7100
3.799335 51.826 144.7722
3.826866 52.004 142.8254
3.854597 52.178 140.8760
3.882529 52.350 138.9291
3.910664 52.519 136.9883
3.939002 52.686 135.0548
3.967546 52.850 133.1276
3.996296 53.013 131.2027
4.025255 53.173 129.2744
4.054423 53.330 127.3360
4.083804 53.485 125.3826
4.113396 53.638 123.4127
4.143204 53.787 121.4286
4.173227 53.934 119.4353
4.203468 54.078 117.4396
4.233928 54.220 115.4483
4.264609 54.359 113.4674
4.295512 54.495 111.5012
4.326639 54.628 109.5514
4.357992 54.759 107.6165
4.389572 54.887 105.6920
4.421380 55.012 103.7715
4.453419 55.135 101.8494
4.485691 55.254 99.9229
4.518196 55.371 97.9931
4.550936 55.484 96.0644
4.583914 55.594 94.1434
4.617131 55.701 92.2371
4.650589 55.805 90.3518
4.684289 55.906 88.4922
4.718233 56.004 86.6598
4.752424 56.098 84.8526
4.786862 56.189 83.0660
4.821549 56.276 81.2947
4.856488 56.360 79.5353
4.891680 56.441 77.7881
4.927127 56.517 76.0564
4.962831 56.591 74.3460
4.998794 56.661 72.6639
5.035017 56.728 71.0164
5.071503 56.791 69.4084
5.108253 56.851 67.8418
5.145270 56.908 66.3154
5.182555 56.961 64.8260
5.220110 57.011 63.3707
5.257937 57.057 61.9486
5.296038 57.101 60.5614
5.334415 57.142 59.2130
5.373071 57.180 57.9090
5.412006 57.217 56.6552
5.451224 57.252 55.4565
5.490725 57.286 54.3161
5.530514 57.318 53.2348
5.570590 57.350 52.2116
5.610957 57.380 51.2449
5.651616 57.409 50.3336
5.692570 57.440 49.4778
5.733821 57.472 48.6785
5.775370 57.506 47.9376
5.817221 57.544 47.2577
5.859375 57.586 46.6411
5.901834 57.632 46.0888
5.944602 57.683 45.6000
5.987679 57.738 45.1712
6.031068 57.799 44.7971
6.074771 57.867 44.4716
6.118792 57.942 44.1883
6.163131 58.026 43.9422
6.207792 58.119 43.7297
6.252776 58.221 43.5486
6.298086 58.334 43.3961
6.343725 58.456 43.2676
6.389694 58.587 43.1556
6.435996 58.728 43.0504
6.482634 58.876 42.9424
6.529610 59.034 42.8229
6.576926 59.199 42.6861
6.624585 59.372 42.5287
6.672590 59.553 42.3492
6.720942 59.740 42.1454
6.769645 59.934 41.9142
6.818700 60.132 41.6512
6.868111 60.333 41.3522
6.917881 60.536 41.0141
6.968010 60.741 40.6356
7.018504 60.947 40.2174
7.069362 61.153 39.7617
7.120590 61.360 39.2710
7.172189 61.565 38.7477
7.224161 61.769 38.1939
7.276511 61.969 37.6109
7.329239 62.167 37.0003
7.382350 62.361 36.3640
7.435845 62.551 35.7050
7.489729 62.737 35.0276
7.544002 62.918 34.3367
7.598669 63.096 33.6369
7.653732 63.268 32.9321
7.709194 63.436 32.2247
7.765058 63.599 31.5171
7.821327 63.757 30.8118
7.878004 63.911 30.1126
7.935091 64.061 29.4239
7.992592 64.207 28.7498
8.050510 64.350 28.0935
8.108847 64.489 27.4568
8.167607 64.626 26.8408
8.226793 64.761 26.2467
8.286408 64.894 25.6757
8.346454 65.026 25.1292
8.406936 65.158 24.6084
8.467856 65.290 24.1135
8.529218 65.423 23.6434
8.591024 65.558 23.1962
8.653278 65.694 22.7689
8.715983 65.832 22.3590
8.779143 65.974 21.9638
8.842760 66.119 21.5807
8.906839 66.268 21.2062
8.971381 66.421 20.8358
9.036392 66.577 20.4646
9.101873 66.736 20.0874
9.167829 66.900 19.7000
9.234263 67.066 19.2991
9.301178 67.236 18.8815
9.368578 67.408 18.4437
9.436467 67.582 17.9822
9.504847 67.757 17.4940
9.573723 67.932 16.9775
9.643099 68.108 16.4321
9.712976 68.282 15.8580
9.783361 68.456 15.2556
9.854255 68.627 14.6256
9.925663 68.795 13.9692
9.997588 68.960 13.2885
10.070035 69.121 12.5864
10.143007 69.278 11.8669
10.216507 69.430 11.1337
10.290540 69.578 10.3903
10.365109 69.720 9.6404
10.440219 69.857 8.8884
10.515873 69.989 8.1392
10.592076 70.116 7.3973
10.668830 70.239 6.6670
10.746141 70.358 5.9517
10.824012 70.473 5.2548
10.902447 70.585 4.5796
10.981451 70.694 3.9291
11.061027 70.802 3.3052
11.141180 70.909 2.7087
11.221913 71.016 2.1396
11.303232 71.124 1.5974
11.385140 71.233 1.0808
11.467641 71.345 0.5876
11.550741 71.459 0.1145
11.634442 71.577 -0.3430
11.718750 71.699 -0.7894
11.803669 71.825 -1.2294
11.889203 71.955 -1.6682
11.975357 72.090 -2.1112
12.062136 72.229 -2.5639
12.149543 72.371 -3.0309
12.237583 72.516 -3.5161
12.326262 72.663 -4.0227
12.415583 72.813 -4.5536
12.505552 72.963 -5.1105
12.596172 73.113 -5.6940
12.687449 73.263 -6.3033
12.779387 73.412 -6.9376
12.871992 73.558 -7.5948
12.965268 73.702 -8.2723
13.059220 73.844 -8.9669
13.153852 73.981 -9.6746
13.249170 74.116 -10.3915
13.345179 74.247 -11.1141
13.441884 74.375 -11.8382
13.539289 74.499 -12.5602
13.637401 74.620 -13.2766
13.736223 74.739 -13.9849
13.835761 74.856 -14.6828
13.936021 74.971 -15.3685
14.037007 75.085 -16.0413
14.138725 75.198 -16.7006
14.241180 75.311 -17.3469
14.344377 75.424 -17.9810
14.448323 75.538 -18.6041
14.553021 75.652 -19.2178
14.658478 75.767 -19.8240
14.764700 75.883 -20.4246
14.871691 76.000 -21.0214
14.979457 76.117 -21.6161
15.088005 76.236 -22.2102
15.197339 76.356 -22.8051
15.307465 76.476 -23.4016
15.418389 76.596 -24.0006
15.530117 76.717 -24.6025
15.642655 76.838 -25.2078
15.756008 76.959 -25.8167
15.870182 77.081 -26.4293
15.985184 77.202 -27.0461
16.101019 77.323 -27.6674
16.217694 77.444 -28.2932
16.335214 77.565 -28.9241
16.453586 77.686 -29.5602
16.572815 77.806 -30.2020
16.692909 77.926 -30.8495
16.813872 78.045 -31.5024
16.935713 78.163 -32.1605
17.058436 78.281 -32.8230
17.182048 78.397 -33.4890
17.306556 78.512 -34.1574
17.431967 78.626 -34.8269
17.558286 78.738 -35.4962
17.685521 78.850 -36.1643
17.813677 78.962 -36.8304
17.942762 79.073 -37.4941
18.072783 79.184 -38.1558
18.203746 79.295 -38.8161
18.335658 79.406 -39.4766
18.468526 79.519 -40.1391
18.602356 79.632 -40.8060
18.737156 79.746 -41.4796
18.872934 79.860 -42.1620
19.009695 79.975 -42.8551
19.147447 80.089 -43.5600
19.286197 80.203 -44.2769
19.425953 80.315 -45.0052
19.566721 80.426 -45.7435
19.708510 80.536 -46.4896
19.851326 80.644 -47.2410
19.995177 80.750 -47.9949
20.140070 80.854 -48.7489
20.286013 80.957 -49.5015
20.433014 81.060 -50.2517
20.581080 81.163 -51.0000
20.730219 81.265 -51.7476
20.880439 81.368 -52.4971
21.031747 81.471 -53.2511
21.184152 81.575 -54.0127
21.337661 81.678 -54.7845
21.492282 81.781 -55.5679
21.648024 81.882 -56.3629
21.804895 81.981 -57.1680
21.962902 82.077 -57.9800
22.122054 82.170 -58.7942
22.282360 82.259 -59.6051
22.443827 82.345 -60.4070
22.606464 82.429 -61.1947
22.770280 82.510 -61.9644
22.935283 82.591 -62.7142
23.101481 82.672 -63.4446
23.268884 82.755 -64.1586
23.437500 82.839 -64.8610
23.607338 82.926 -65.5581
23.778406 83.015 -66.2568
23.950714 83.106 -66.9631
24.124271 83.198 -67.6818
24.299086 83.290 -68.4153
24.475167 83.381 -69.1636
24.652524 83.470 -69.9247
24.831166 83.557 -70.6949
25.011103 83.641 -71.4697
25.192344 83.722 -72.2446
25.374898 83.802 -73.0164
25.558775 83.880 -73.7837
25.743984 83.957 -74.5467
25.930536 84.034 -75.3076
26.118439 84.111 -76.0699
26.307704 84.187 -76.8372
26.498341 84.263 -77.6125
26.690359 84.338 -78.3978
26.883768 84.412 -79.1929
27.078579 84.482 -79.9962
27.274801 84.551 -80.8046
27.472446 84.616 -81.6146
27.671522 84.680 -82.4229
27.872042 84.741 -83.2271
28.074014 84.801 -84.0265
28.277450 84.861 -84.8220
28.482360 84.920 -85.6158
28.688755 84.979 -86.4106
28.896645 85.038 -87.2091
29.106042 85.097 -88.0132
29.316957 85.154 -88.8241
29.529400 85.211 -89.6417
29.743382 85.267 -90.4655
29.958915 85.321 -91.2950
30.176009 85.375 -92.1301
30.394677 85.427 -92.9712
30.614929 85.478 -93.8189
30.836778 85.526 -94.6735
31.060234 85.573 -95.5336
31.285309 85.617 -96.3963
31.512015 85.657 -97.2563
31.740364 85.693 -98.1068
31.970368 85.727 -98.9404
32.202039 85.758 -99.7508
32.435388 85.789 -100.5347
32.670428 85.821 -101.2927
32.907171 85.854 -102.0298
33.145630 85.891 -102.7542
33.385817 85.932 -103.4751
33.627745 85.974 -104.2011
33.871425 86.018 -104.9370
34.116871 86.062 -105.6830
34.364096 86.104 -106.4349
34.613113 86.144 -107.1858
34.863934 86.182 -107.9282
35.116572 86.220 -108.6569
35.371041 86.258 -109.3707
35.627354 86.298 -110.0736
35.885525 86.341 -110.7731
36.145566 86.386 -111.4786
36.407492 86.433 -112.1991
36.671316 86.480 -112.9403
36.937051 86.525 -113.7038
37.204712 86.568 -114.4874
37.474313 86.607 -115.2858
37.745867 86.641 -116.0928
38.019389 86.671 -116.9023
38.294893 86.697 -117.7090
38.572394 86.718 -118.5090
38.851905 86.734 -119.2988
39.133442 86.747 -120.0747
39.417019 86.757 -120.8326
39.702651 86.763 -121.5687
39.990353 86.767 -122.2797
40.280140 86.770 -122.9645
40.572026 86.775 -123.6252
40.866028 86.781 -124.2667
41.162160 86.789 -124.8971
41.460438 86.802 -125.5259
41.760877 86.818 -126.1631
42.063494 86.836 -126.8175
42.368303 86.857 -127.4958
42.675322 86.878 -128.2015
42.984565 86.898 -128.9350
43.296048 86.917 -129.6932
43.609789 86.932 -130.4698
43.925804 86.944 -131.2566
44.244108 86.953 -132.0441
44.564719 86.959 -132.8236
44.887654 86.963 -133.5889
45.212928 86.967 -134.3369
45.540560 86.970 -135.0679
45.870565 86.975 -135.7841
46.202962 86.981 -136.4885
46.537768 86.988 -137.1837
46.875000 86.996 -137.8707
47.214676 87.004 -138.5500
47.556813 87.012 -139.2217
47.901429 87.020 -139.8864
48.248542 87.028 -140.5449
48.598171 87.035 -141.1980
48.950334 87.041 -141.8458
49.305048 87.045 -142.4878
49.662333 87.047 -143.1234
50.022206 87.047 -143.7525
50.384688 87.046 -144.3752
50.749796 87.043 -144.9919
51.117550 87.037 -145.6022
51.487969 87.030 -146.2053
51.861072 87.023 -146.8011
52.236879 87.015 -147.3914
52.615409 87.007 -147.9805
52.996681 87.001 -148.5750
53.380717 86.995 -149.1816
53.767536 86.989 -149.8041
54.157158 86.983 -150.4418
54.549603 86.974 -151.0895
54.944892 86.963 -151.7395
55.343045 86.950 -152.3845
55.744084 86.937 -153.0199
56.148028 86.923 -153.6450
56.554900 86.909 -154.2620
56.964720 86.894 -154.8732
57.377510 86.880 -155.4805
57.793291 86.864 -156.0831
58.212085 86.846 -156.6788
58.633914 86.826 -157.2640
59.058799 86.804 -157.8367
59.486764 86.782 -158.3982
59.917829 86.760 -158.9532
60.352019 86.738 -159.5087
60.789354 86.715 -160.0695
61.229859 86.693 -160.6363
61.673556 86.670 -161.2061
62.120468 86.648 -161.7753
62.570618 86.628 -162.3431
63.024031 86.610 -162.9103
63.480729 86.596 -163.4776
63.940736 86.585 -164.0446
64.404077 86.579 -164.6108
64.870776 86.578 -165.1757
65.340856 86.580 -165.7380
65.814343 86.588 -166.2989
66.291261 86.600 -166.8677
66.771635 86.615 -167.4667
67.255489 86.629 -168.1205
67.742850 86.632 -168.8316
68.233743 86.616 -169.5626
68.728193 86.577 -170.2454
69.226226 86.522 -170.8179
69.727867 86.460 -171.2607
70.233144 86.400 -171.6038
70.742083 86.348 -171.9005
71.254709 86.302 -172.1956
71.771050 86.260 -172.5133
72.291132 86.222 -172.8661
72.814984 86.186 -173.2620
73.342631 86.151 -173.7031
73.874102 86.116 -174.1819
74.409424 86.080 -174.6846
74.948626 86.045 -175.1980
75.491734 86.011 -175.7143
76.038779 85.979 -176.2305
76.589787 85.949 -176.7461
77.144788 85.921 -177.2607
77.703811 85.892 -177.7722
78.266885 85.862 -178.2756
78.834039 85.830 -178.7661
79.405303 85.795 -179.2420
79.980706 85.758 -179.7046
80.560280 85.718 179.8450
81.144053 85.675 179.4064
81.732056 85.631 178.9783
82.324320 85.587 178.5555
82.920876 85.543 178.1305
83.521755 85.500 177.6958
84.126988 85.458 177.2474
84.736607 85.416 176.7853
85.350643 85.373 176.3132
85.969129 85.330 175.8363
86.592097 85.287 175.3579
87.219579 85.243 174.8790
87.851608 85.198 174.3994
88.488217 85.151 173.9201
89.129439 85.103 173.4439
89.775308 85.053 172.9756
90.425856 85.001 172.5232
91.081119 84.947 172.0948
91.741131 84.895 171.6929
