* Measurement data measured by REW V5.31.3
* Source: Headset (CX31993 HIFI AUDIO), MICROPHONE (Master Volume), R, volume: 0.400
* Format: 256k Log Swept Sine, 1 sweep at -12.0 dBFS with no timing reference
* Dated: 03 3, 25 6:15:46 PM
* REW Settings:
*  C-weighting compensation: Off
*  Target level: 75.0 dB
* Note: ; 
* Measurement: Melobuds Pro Default L
* Smoothing: 1/12 octave
* Frequency Step: 96 ppo
* Start Frequency: 0.36621094 Hz
*
* Freq(Hz) SPL(dB) Phase(degrees)
0.366211 31.354 143.6263
0.368865 31.324 143.6089
0.371538 31.279 143.5824
0.374230 31.223 143.5482
0.376942 31.160 143.5075
0.379673 31.093 143.4613
0.382424 31.022 143.4102
0.385196 30.949 143.3545
0.387987 30.875 143.2944
0.390798 30.800 143.2298
0.393630 30.724 143.1610
0.396483 30.647 143.0877
0.399356 30.570 143.0101
0.402250 30.492 142.9279
0.405165 30.414 142.8413
0.408101 30.335 142.7500
0.411058 30.255 142.6541
0.414037 30.175 142.5534
0.417037 30.094 142.4479
0.420059 30.013 142.3375
0.423103 29.931 142.2222
0.426169 29.849 142.1017
0.429257 29.766 141.9762
0.432368 29.682 141.8455
0.435501 29.598 141.7094
0.438656 29.513 141.5680
0.441835 29.427 141.4211
0.445037 29.341 141.2687
0.448262 29.255 141.1105
0.451510 29.167 140.9467
0.454782 29.079 140.7770
0.458077 28.991 140.6014
0.461397 28.901 140.4198
0.464740 28.811 140.2320
0.468108 28.721 140.0379
0.471500 28.630 139.8376
0.474917 28.538 139.6308
0.478358 28.445 139.4174
0.481825 28.352 139.1975
0.485316 28.258 138.9707
0.488833 28.164 138.7371
0.492375 28.068 138.4965
0.495943 27.972 138.2488
0.499537 27.876 137.9939
0.503157 27.778 137.7318
0.506803 27.680 137.4622
0.510475 27.582 137.1850
0.514175 27.482 136.9003
0.517900 27.382 136.6078
0.521653 27.281 136.3075
0.525434 27.179 135.9992
0.529241 27.077 135.6829
0.533076 26.974 135.3584
0.536939 26.870 135.0258
0.540830 26.765 134.6848
0.544749 26.660 134.3354
0.548696 26.554 133.9775
0.552673 26.447 133.6111
0.556677 26.339 133.2360
0.560711 26.231 132.8524
0.564774 26.122 132.4600
0.568867 26.012 132.0589
0.572989 25.901 131.6491
0.577141 25.789 131.2305
0.581324 25.677 130.8033
0.585536 25.564 130.3673
0.589779 25.450 129.9228
0.594053 25.335 129.4697
0.598358 25.219 129.0082
0.602694 25.102 128.5385
0.607061 24.985 128.0607
0.611460 24.867 127.5750
0.615891 24.748 127.0817
0.620354 24.628 126.5811
0.624849 24.507 126.0736
0.629377 24.385 125.5595
0.633938 24.263 125.0393
0.638532 24.139 124.5136
0.643159 24.015 123.9831
0.647819 23.889 123.4483
0.652514 23.763 122.9102
0.657242 23.636 122.3697
0.662005 23.508 121.8278
0.666802 23.379 121.2857
0.671634 23.249 120.7448
0.676501 23.119 120.2066
0.681403 22.987 119.6728
0.686341 22.855 119.1453
0.691314 22.721 118.6263
0.696324 22.588 118.1182
0.701370 22.454 117.6234
0.706452 22.321 117.1446
0.711571 22.191 116.6841
0.716728 22.065 116.2439
0.721921 21.948 115.8247
0.727153 21.843 115.4255
0.732422 21.756 115.0429
0.737729 21.691 114.6709
0.743075 21.646 114.3022
0.748460 21.618 113.9294
0.753883 21.606 113.5454
0.759346 21.605 113.1440
0.764849 21.614 112.7188
0.770391 21.631 112.2634
0.775974 21.656 111.7699
0.781597 21.688 111.2285
0.787261 21.726 110.6262
0.792966 21.771 109.9447
0.798712 21.822 109.1577
0.804500 21.880 108.2248
0.810329 21.944 107.0820
0.816201 22.014 105.6198
0.822116 22.090 103.6352
0.828073 22.172 100.7070
0.834074 22.260 95.8051
0.840118 22.353 85.6974
0.846206 22.453 56.3234
0.852338 22.558 -10.3720
0.858514 22.669 -41.2296
0.864735 22.785 -51.7225
0.871001 22.906 -56.7835
0.877313 23.033 -59.8174
0.883670 23.165 -61.8963
0.890074 23.301 -63.4555
0.896524 23.442 -64.7032
0.903020 23.588 -65.7518
0.909564 23.738 -66.6668
0.916155 23.893 -67.4893
0.922794 24.051 -68.2465
0.929481 24.213 -68.9568
0.936216 24.379 -69.6336
0.943000 24.548 -70.2867
0.949834 24.720 -70.9236
0.956717 24.896 -71.5499
0.963649 25.073 -72.1705
0.970632 25.253 -72.7890
0.977666 25.435 -73.4086
0.984750 25.619 -74.0322
0.991886 25.804 -74.6620
0.999074 25.990 -75.3002
1.006314 26.177 -75.9488
1.013606 26.364 -76.6095
1.020951 26.551 -77.2840
1.028349 26.738 -77.9741
1.035801 26.924 -78.6812
1.043307 27.109 -79.4069
1.050867 27.293 -80.1526
1.058482 27.474 -80.9200
1.066152 27.654 -81.7103
1.073878 27.832 -82.5248
1.081660 28.007 -83.3646
1.089498 28.182 -84.2301
1.097393 28.356 -85.1212
1.105345 28.530 -86.0369
1.113355 28.706 -86.9752
1.121423 28.884 -87.9334
1.129549 29.066 -88.9082
1.137734 29.251 -89.8964
1.145979 29.440 -90.8946
1.154283 29.632 -91.8997
1.162647 29.829 -92.9089
1.171072 30.028 -93.9196
1.179558 30.232 -94.9297
1.188106 30.439 -95.9372
1.196715 30.648 -96.9404
1.205387 30.861 -97.9379
1.214122 31.077 -98.9286
1.222920 31.295 -99.9114
1.231782 31.515 -100.8858
1.240708 31.738 -101.8511
1.249699 31.962 -102.8071
1.258754 32.188 -103.7534
1.267876 32.416 -104.6901
1.277063 32.644 -105.6173
1.286318 32.873 -106.5351
1.295639 33.103 -107.4440
1.305027 33.333 -108.3444
1.314484 33.563 -109.2367
1.324009 33.793 -110.1217
1.333604 34.021 -111.0001
1.343268 34.249 -111.8725
1.353002 34.475 -112.7400
1.362806 34.699 -113.6035
1.372681 34.921 -114.4639
1.382628 35.140 -115.3224
1.392647 35.356 -116.1802
1.402739 35.568 -117.0386
1.412904 35.776 -117.8991
1.423142 35.980 -118.7634
1.433455 36.180 -119.6334
1.443843 36.375 -120.5112
1.454305 36.564 -121.3992
1.464844 36.749 -122.2998
1.475459 36.929 -123.2153
1.486150 37.104 -124.1471
1.496920 37.275 -125.0958
1.507767 37.441 -126.0610
1.518693 37.604 -127.0417
1.529698 37.763 -128.0364
1.540783 37.918 -129.0436
1.551948 38.070 -130.0616
1.563194 38.218 -131.0887
1.574521 38.363 -132.1234
1.585931 38.504 -133.1642
1.597423 38.643 -134.2098
1.608999 38.779 -135.2591
1.620658 38.912 -136.3110
1.632402 39.043 -137.3646
1.644232 39.172 -138.4192
1.656146 39.298 -139.4743
1.668147 39.423 -140.5293
1.680235 39.546 -141.5840
1.692411 39.667 -142.6383
1.704675 39.788 -143.6921
1.717028 39.907 -144.7457
1.729470 40.026 -145.7992
1.742003 40.145 -146.8534
1.754626 40.263 -147.9089
1.767341 40.382 -148.9668
1.780147 40.500 -150.0287
1.793047 40.620 -151.0964
1.806040 40.739 -152.1726
1.819128 40.859 -153.2606
1.832310 40.979 -154.3642
1.845587 41.098 -155.4872
1.858961 41.217 -156.6323
1.872432 41.335 -157.8009
1.886001 41.451 -158.9931
1.899667 41.565 -160.2075
1.913433 41.678 -161.4421
1.927299 41.790 -162.6945
1.941265 41.899 -163.9619
1.955332 42.008 -165.2415
1.969501 42.114 -166.5307
1.983773 42.220 -167.8268
1.998148 42.323 -169.1273
2.012627 42.426 -170.4301
2.027212 42.528 -171.7328
2.041902 42.628 -173.0338
2.056698 42.727 -174.3313
2.071602 42.826 -175.6241
2.086614 42.924 -176.9110
2.101734 43.020 -178.1913
2.116964 43.117 -179.4648
2.132304 43.213 179.2679
2.147756 43.308 178.0058
2.163320 43.403 176.7464
2.178996 43.497 175.4862
2.194786 43.591 174.2203
2.210690 43.684 172.9432
2.226710 43.776 171.6499
2.242845 43.867 170.3369
2.259098 43.957 169.0028
2.275468 44.046 167.6479
2.291957 44.133 166.2739
2.308566 44.220 164.8833
2.325295 44.305 163.4792
2.342145 44.388 162.0650
2.359117 44.471 160.6440
2.376212 44.552 159.2198
2.393431 44.632 157.7957
2.410775 44.711 156.3752
2.428244 44.789 154.9612
2.445840 44.866 153.5565
2.463564 44.941 152.1634
2.481416 45.016 150.7836
2.499397 45.090 149.4180
2.517509 45.162 148.0658
2.535752 45.234 146.7250
2.554127 45.304 145.3913
2.572635 45.374 144.0589
2.591277 45.442 142.7214
2.610055 45.508 141.3735
2.628968 45.574 140.0121
2.648019 45.638 138.6362
2.667208 45.700 137.2466
2.686535 45.761 135.8458
2.706003 45.820 134.4370
2.725612 45.878 133.0240
2.745363 45.935 131.6115
2.765257 45.990 130.2039
2.785295 46.043 128.8060
2.805478 46.095 127.4225
2.825808 46.146 126.0579
2.846285 46.195 124.7160
2.866910 46.242 123.3996
2.887685 46.288 122.1098
2.908611 46.333 120.8458
2.929688 46.375 119.6041
2.950917 46.416 118.3795
2.972301 46.454 117.1662
2.993839 46.490 115.9596
3.015534 46.524 114.7571
3.037386 46.557 113.5580
3.059396 46.587 112.3633
3.081565 46.615 111.1757
3.103896 46.642 109.9986
3.126388 46.668 108.8363
3.149043 46.692 107.6938
3.171862 46.716 106.5765
3.194847 46.739 105.4897
3.217998 46.761 104.4389
3.241317 46.783 103.4285
3.264805 46.804 102.4615
3.288463 46.824 101.5394
3.312293 46.843 100.6611
3.336295 46.860 99.8242
3.360471 46.876 99.0256
3.384822 46.890 98.2629
3.409350 46.903 97.5343
3.434056 46.915 96.8390
3.458940 46.928 96.1772
3.484005 46.942 95.5500
3.509252 46.958 94.9590
3.534681 46.977 94.4065
3.560295 47.000 93.8955
3.586094 47.028 93.4294
3.612081 47.062 93.0122
3.638255 47.102 92.6479
3.664620 47.147 92.3403
3.691175 47.199 92.0918
3.717923 47.256 91.9030
3.744864 47.318 91.7716
3.772001 47.386 91.6927
3.799335 47.461 91.6594
3.826866 47.541 91.6634
3.854597 47.630 91.6955
3.882529 47.726 91.7464
3.910664 47.831 91.8066
3.939002 47.946 91.8678
3.967546 48.072 91.9230
3.996296 48.209 91.9675
4.025255 48.358 91.9998
4.054423 48.520 92.0213
4.083804 48.694 92.0358
4.113396 48.881 92.0464
4.143204 49.079 92.0547
4.173227 49.287 92.0605
4.203468 49.505 92.0611
4.233928 49.730 92.0521
4.264609 49.961 92.0274
4.295512 50.198 91.9784
4.326639 50.439 91.8947
4.357992 50.684 91.7643
4.389572 50.933 91.5759
4.421380 51.187 91.3231
4.453419 51.445 91.0071
4.485691 51.707 90.6342
4.518196 51.974 90.2101
4.550936 52.243 89.7388
4.583914 52.514 89.2216
4.617131 52.786 88.6578
4.650589 53.057 88.0460
4.684289 53.326 87.3844
4.718233 53.592 86.6724
4.752424 53.855 85.9108
4.786862 54.116 85.1023
4.821549 54.373 84.2513
4.856488 54.627 83.3630
4.891680 54.878 82.4426
4.927127 55.126 81.4943
4.962831 55.370 80.5218
4.998794 55.611 79.5270
5.035017 55.847 78.5109
5.071503 56.078 77.4734
5.108253 56.304 76.4137
5.145270 56.524 75.3307
5.182555 56.740 74.2249
5.220110 56.950 73.0984
5.257937 57.154 71.9552
5.296038 57.353 70.8005
5.334415 57.547 69.6397
5.373071 57.735 68.4774
5.412006 57.918 67.3168
5.451224 58.096 66.1591
5.490725 58.268 65.0034
5.530514 58.434 63.8482
5.570590 58.594 62.6925
5.610957 58.749 61.5375
5.651616 58.898 60.3868
5.692570 59.042 59.2455
5.733821 59.180 58.1192
5.775370 59.314 57.0126
5.817221 59.442 55.9288
5.859375 59.566 54.8688
5.901834 59.685 53.8315
5.944602 59.799 52.8160
5.987679 59.909 51.8226
6.031068 60.014 50.8532
6.074771 60.116 49.9117
6.118792 60.215 49.0023
6.163131 60.311 48.1291
6.207792 60.405 47.2948
6.252776 60.497 46.5004
6.298086 60.587 45.7455
6.343725 60.675 45.0289
6.389694 60.763 44.3499
6.435996 60.850 43.7084
6.482634 60.938 43.1049
6.529610 61.028 42.5403
6.576926 61.119 42.0153
6.624585 61.213 41.5300
6.672590 61.310 41.0832
6.720942 61.410 40.6720
6.769645 61.514 40.2924
6.818700 61.621 39.9395
6.868111 61.734 39.6091
6.917881 61.852 39.2975
6.968010 61.975 39.0021
7.018504 62.104 38.7206
7.069362 62.239 38.4498
7.120590 62.380 38.1849
7.172189 62.525 37.9201
7.224161 62.676 37.6492
7.276511 62.832 37.3668
7.329239 62.992 37.0695
7.382350 63.157 36.7551
7.435845 63.325 36.4221
7.489729 63.497 36.0688
7.544002 63.672 35.6926
7.598669 63.848 35.2908
7.653732 64.026 34.8614
7.709194 64.204 34.4033
7.765058 64.382 33.9171
7.821327 64.559 33.4039
7.878004 64.736 32.8655
7.935091 64.912 32.3038
7.992592 65.085 31.7201
8.050510 65.255 31.1158
8.108847 65.423 30.4926
8.167607 65.588 29.8525
8.226793 65.749 29.1987
8.286408 65.907 28.5351
8.346454 66.061 27.8650
8.406936 66.212 27.1915
8.467856 66.359 26.5170
8.529218 66.502 25.8434
8.591024 66.642 25.1733
8.653278 66.779 24.5098
8.715983 66.912 23.8561
8.779143 67.043 23.2146
8.842760 67.172 22.5870
8.906839 67.299 21.9744
8.971381 67.424 21.3774
9.036392 67.548 20.7969
9.101873 67.672 20.2334
9.167829 67.795 19.6873
9.234263 67.919 19.1583
9.301178 68.044 18.6450
9.368578 68.169 18.1457
9.436467 68.296 17.6583
9.504847 68.425 17.1808
9.573723 68.555 16.7111
9.643099 68.688 16.2469
9.712976 68.823 15.7855
9.783361 68.960 15.3236
9.854255 69.099 14.8582
9.925663 69.240 14.3867
9.997588 69.382 13.9072
10.070035 69.526 13.4179
10.143007 69.671 12.9168
10.216507 69.816 12.4023
10.290540 69.962 11.8735
10.365109 70.108 11.3300
10.440219 70.253 10.7720
10.515873 70.397 10.2003
10.592076 70.539 9.6158
10.668830 70.680 9.0198
10.746141 70.819 8.4136
10.824012 70.955 7.7996
10.902447 71.090 7.1802
10.981451 71.221 6.5579
11.061027 71.351 5.9349
11.141180 71.477 5.3138
11.221913 71.602 4.6970
11.303232 71.724 4.0868
11.385140 71.845 3.4855
11.467641 71.964 2.8947
11.550741 72.081 2.3156
11.634442 72.198 1.7491
11.718750 72.315 1.1960
11.803669 72.432 0.6564
11.889203 72.549 0.1296
11.975357 72.667 -0.3851
12.062136 72.786 -0.8892
12.149543 72.907 -1.3843
12.237583 73.029 -1.8723
12.326262 73.154 -2.3556
12.415583 73.280 -2.8364
12.505552 73.409 -3.3174
12.596172 73.539 -3.8007
12.687449 73.672 -4.2883
12.779387 73.806 -4.7826
12.871992 73.941 -5.2852
12.965268 74.078 -5.7974
13.059220 74.216 -6.3203
13.153852 74.354 -6.8546
13.249170 74.493 -7.4008
13.345179 74.633 -7.9590
13.441884 74.772 -8.5290
13.539289 74.911 -9.1106
13.637401 75.049 -9.7033
13.736223 75.188 -10.3068
13.835761 75.325 -10.9203
13.936021 75.462 -11.5437
14.037007 75.598 -12.1765
14.138725 75.733 -12.8182
14.241180 75.868 -13.4688
14.344377 76.001 -14.1277
14.448323 76.133 -14.7949
14.553021 76.265 -15.4700
14.658478 76.394 -16.1525
14.764700 76.522 -16.8417
14.871691 76.649 -17.5369
14.979457 76.773 -18.2367
15.088005 76.896 -18.9398
15.197339 77.017 -19.6446
15.307465 77.135 -20.3490
15.418389 77.251 -21.0510
15.530117 77.366 -21.7485
15.642655 77.478 -22.4393
15.756008 77.589 -23.1217
15.870182 77.699 -23.7940
15.985184 77.808 -24.4553
16.101019 77.917 -25.1052
16.217694 78.026 -25.7441
16.335214 78.135 -26.3729
16.453586 78.246 -26.9937
16.572815 78.358 -27.6086
16.692909 78.472 -28.2208
16.813872 78.587 -28.8333
16.935713 78.704 -29.4493
17.058436 78.822 -30.0718
17.182048 78.941 -30.7029
17.306556 79.061 -31.3444
17.431967 79.181 -31.9966
17.558286 79.300 -32.6593
17.685521 79.418 -33.3310
17.813677 79.535 -34.0095
17.942762 79.651 -34.6920
18.072783 79.765 -35.3755
18.203746 79.878 -36.0569
18.335658 79.990 -36.7339
18.468526 80.102 -37.4050
18.602356 80.215 -38.0699
18.737156 80.328 -38.7297
18.872934 80.443 -39.3868
19.009695 80.560 -40.0453
19.147447 80.679 -40.7097
19.286197 80.801 -41.3849
19.425953 80.924 -42.0760
19.566721 81.047 -42.7869
19.708510 81.171 -43.5200
19.851326 81.294 -44.2760
19.995177 81.414 -45.0533
20.140070 81.531 -45.8481
20.286013 81.644 -46.6547
20.433014 81.753 -47.4659
20.581080 81.857 -48.2738
20.730219 81.957 -49.0709
20.880439 82.054 -49.8504
21.031747 82.150 -50.6076
21.184152 82.245 -51.3405
21.337661 82.341 -52.0502
21.492282 82.439 -52.7410
21.648024 82.541 -53.4200
21.804895 82.647 -54.0964
21.962902 82.757 -54.7805
22.122054 82.870 -55.4819
22.282360 82.985 -56.2088
22.443827 83.101 -56.9665
22.606464 83.215 -57.7568
22.770280 83.327 -58.5781
22.935283 83.434 -59.4250
23.101481 83.536 -60.2900
23.268884 83.632 -61.1639
23.437500 83.723 -62.0372
23.607338 83.808 -62.9017
23.778406 83.890 -63.7512
23.950714 83.968 -64.5826
24.124271 84.046 -65.3964
24.299086 84.124 -66.1958
24.475167 84.202 -66.9866
24.652524 84.281 -67.7758
24.831166 84.361 -68.5699
25.011103 84.441 -69.3745
25.192344 84.520 -70.1921
25.374898 84.597 -71.0227
25.558775 84.671 -71.8633
25.743984 84.742 -72.7086
25.930536 84.809 -73.5524
26.118439 84.873 -74.3887
26.307704 84.935 -75.2126
26.498341 84.996 -76.0221
26.690359 85.058 -76.8180
26.883768 85.121 -77.6039
27.078579 85.186 -78.3851
27.274801 85.253 -79.1684
27.472446 85.322 -79.9595
27.671522 85.392 -80.7623
27.872042 85.462 -81.5785
28.074014 85.532 -82.4065
28.277450 85.600 -83.2426
28.482360 85.667 -84.0817
28.688755 85.732 -84.9188
28.896645 85.797 -85.7501
29.106042 85.862 -86.5743
29.316957 85.928 -87.3927
29.529400 85.994 -88.2085
29.743382 86.063 -89.0266
29.958915 86.132 -89.8514
30.176009 86.200 -90.6860
30.394677 86.268 -91.5309
30.614929 86.333 -92.3836
30.836778 86.395 -93.2394
31.060234 86.453 -94.0920
31.285309 86.508 -94.9354
31.512015 86.560 -95.7645
31.740364 86.609 -96.5768
31.970368 86.657 -97.3726
32.202039 86.704 -98.1538
32.435388 86.750 -98.9243
32.670428 86.796 -99.6879
32.907171 86.840 -100.4482
33.145630 86.883 -101.2083
33.385817 86.926 -101.9706
33.627745 86.966 -102.7384
33.871425 87.006 -103.5154
34.116871 87.044 -104.3063
34.364096 87.080 -105.1158
34.613113 87.112 -105.9472
34.863934 87.141 -106.8008
35.116572 87.163 -107.6723
35.371041 87.178 -108.5527
35.627354 87.186 -109.4290
35.885525 87.188 -110.2862
36.145566 87.185 -111.1109
36.407492 87.180 -111.8939
36.671316 87.176 -112.6329
36.937051 87.177 -113.3339
37.204712 87.186 -114.0104
37.474313 87.204 -114.6804
37.745867 87.232 -115.3635
38.019389 87.266 -116.0764
38.294893 87.307 -116.8301
38.572394 87.350 -117.6279
38.851905 87.392 -118.4655
39.133442 87.433 -119.3317
39.417019 87.469 -120.2116
39.702651 87.501 -121.0889
39.990353 87.529 -121.9483
40.280140 87.554 -122.7782
40.572026 87.578 -123.5712
40.866028 87.602 -124.3250
41.162160 87.627 -125.0415
41.460438 87.655 -125.7268
41.760877 87.687 -126.3901
42.063494 87.722 -127.0439
42.368303 87.760 -127.7022
42.675322 87.800 -128.3787
42.984565 87.839 -129.0836
43.296048 87.875 -129.8210
43.609789 87.905 -130.5861
43.925804 87.926 -131.3663
44.244108 87.939 -132.1452
44.564719 87.944 -132.9077
44.887654 87.945 -133.6456
45.212928 87.943 -134.3603
45.540560 87.941 -135.0602
45.870565 87.939 -135.7557
46.202962 87.937 -136.4536
46.537768 87.934 -137.1534
46.875000 87.929 -137.8494
47.214676 87.924 -138.5350
47.556813 87.920 -139.2084
47.901429 87.919 -139.8743
48.248542 87.921 -140.5417
48.598171 87.924 -141.2183
48.950334 87.928 -141.9062
49.305048 87.930 -142.6013
49.662333 87.929 -143.2954
50.022206 87.926 -143.9806
50.384688 87.919 -144.6515
50.749796 87.911 -145.3050
51.117550 87.899 -145.9388
51.487969 87.886 -146.5512
51.861072 87.872 -147.1422
52.236879 87.857 -147.7167
52.615409 87.845 -148.2853
52.996681 87.833 -148.8619
53.380717 87.822 -149.4581
53.767536 87.810 -150.0781
54.157158 87.796 -150.7182
54.549603 87.780 -151.3705
54.944892 87.762 -152.0292
55.343045 87.745 -152.6939
55.744084 87.729 -153.3685
56.148028 87.714 -154.0559
56.554900 87.699 -154.7536
56.964720 87.683 -155.4531
57.377510 87.666 -156.1433
57.793291 87.649 -156.8152
58.212085 87.632 -157.4633
58.633914 87.616 -158.0847
59.058799 87.601 -158.6797
59.486764 87.588 -159.2524
59.917829 87.576 -159.8110
60.352019 87.564 -160.3645
60.789354 87.551 -160.9165
61.229859 87.534 -161.4622
61.673556 87.514 -161.9932
62.120468 87.493 -162.5062
62.570618 87.473 -163.0082
63.024031 87.454 -163.5116
63.480729 87.437 -164.0261
63.940736 87.423 -164.5557
64.404077 87.411 -165.1039
64.870776 87.403 -165.6776
65.340856 87.399 -166.2834
65.814343 87.396 -166.9226
66.291261 87.393 -167.5927
66.771635 87.390 -168.2958
67.255489 87.384 -169.0372
67.742850 87.367 -169.8084
68.233743 87.335 -170.5699
68.728193 87.285 -171.2574
69.226226 87.224 -171.8161
69.727867 87.162 -172.2363
70.233144 87.108 -172.5601
70.742083 87.064 -172.8510
71.254709 87.027 -173.1567
71.771050 86.991 -173.4933
72.291132 86.953 -173.8539
72.814984 86.915 -174.2279
73.342631 86.877 -174.6145
73.874102 86.842 -175.0240
74.409424 86.809 -175.4680
74.948626 86.776 -175.9459
75.491734 86.743 -176.4440
76.038779 86.710 -176.9480
76.589787 86.679 -177.4545
77.144788 86.649 -177.9677
77.703811 86.619 -178.4861
78.266885 86.587 -179.0000
78.834039 86.552 -179.4991
79.405303 86.516 -179.9794
79.980706 86.476 179.5603
80.560280 86.435 179.1224
81.144053 86.392 178.7059
81.732056 86.350 178.3008
82.324320 86.309 177.8914
82.920876 86.268 177.4659
83.521755 86.227 177.0206
84.126988 86.185 176.5576
84.736607 86.141 176.0811
85.350643 86.097 175.5974
85.969129 86.051 175.1140
86.592097 86.004 174.6390
87.219579 85.958 174.1785
87.851608 85.913 173.7341
88.488217 85.869 173.3010
89.129439 85.828 172.8702
89.775308 85.788 172.4337
90.425856 85.746 171.9910
91.081119 85.701 171.5476
91.741131 85.653 171.1091
92.405925 85.601 170.6787
93.075536 85.546 170.2637
93.750000 85.487 169.8770
