* Measurement data measured by REW V5.31.3
* Source: Headset (2- CX31993 HIFI AUDIO), MICROPHONE (Master Volume), R, volume: 0.400
* Format: 256k Log Swept Sine, 1 sweep at -12.0 dBFS with no timing reference
* Dated: 10 3, 24 8:03:15 AM
* REW Settings:
*  C-weighting compensation: Off
*  Target level: 75.0 dB
* Note: ; 
* Measurement: Moondrop Nekocake L
* Smoothing: 1/12 octave
* Frequency Step: 96 ppo
* Start Frequency: 0.36621094 Hz
*
* Freq(Hz) SPL(dB) Phase(degrees)
0.366211 46.975 90.1108
0.368865 46.999 89.9736
0.371538 47.034 89.7701
0.374230 47.078 89.5177
0.376942 47.128 89.2318
0.379673 47.181 88.9234
0.382424 47.236 88.5998
0.385196 47.292 88.2657
0.387987 47.350 87.9238
0.390798 47.408 87.5754
0.393630 47.467 87.2215
0.396483 47.526 86.8625
0.399356 47.586 86.4988
0.402250 47.646 86.1306
0.405165 47.707 85.7579
0.408101 47.768 85.3809
0.411058 47.829 84.9997
0.414037 47.891 84.6145
0.417037 47.954 84.2252
0.420059 48.017 83.8320
0.423103 48.080 83.4351
0.426169 48.144 83.0345
0.429257 48.208 82.6302
0.432368 48.273 82.2226
0.435501 48.338 81.8115
0.438656 48.404 81.3972
0.441835 48.470 80.9798
0.445037 48.536 80.5594
0.448262 48.603 80.1360
0.451510 48.671 79.7098
0.454782 48.739 79.2810
0.458077 48.808 78.8495
0.461397 48.877 78.4156
0.464740 48.946 77.9793
0.468108 49.016 77.5407
0.471500 49.087 77.1000
0.474917 49.158 76.6572
0.478358 49.230 76.2125
0.481825 49.302 75.7660
0.485316 49.375 75.3176
0.488833 49.448 74.8677
0.492375 49.521 74.4161
0.495943 49.596 73.9631
0.499537 49.670 73.5086
0.503157 49.746 73.0529
0.506803 49.822 72.5959
0.510475 49.898 72.1377
0.514175 49.975 71.6784
0.517900 50.053 71.2181
0.521653 50.131 70.7568
0.525434 50.209 70.2945
0.529241 50.289 69.8315
0.533076 50.368 69.3675
0.536939 50.449 68.9028
0.540830 50.530 68.4374
0.544749 50.611 67.9712
0.548696 50.693 67.5043
0.552673 50.776 67.0368
0.556677 50.860 66.5686
0.560711 50.944 66.0997
0.564774 51.028 65.6303
0.568867 51.113 65.1602
0.572989 51.199 64.6894
0.577141 51.286 64.2181
0.581324 51.373 63.7460
0.585536 51.460 63.2733
0.589779 51.549 62.7999
0.594053 51.638 62.3257
0.598358 51.727 61.8508
0.602694 51.817 61.3751
0.607061 51.908 60.8985
0.611460 52.000 60.4211
0.615891 52.092 59.9426
0.620354 52.185 59.4632
0.624849 52.279 58.9827
0.629377 52.373 58.5011
0.633938 52.468 58.0182
0.638532 52.563 57.5341
0.643159 52.660 57.0486
0.647819 52.757 56.5616
0.652514 52.854 56.0732
0.657242 52.953 55.5830
0.662005 53.052 55.0911
0.666802 53.152 54.5974
0.671634 53.252 54.1018
0.676501 53.354 53.6041
0.681403 53.456 53.1042
0.686341 53.559 52.6021
0.691314 53.662 52.0976
0.696324 53.766 51.5906
0.701370 53.871 51.0810
0.706452 53.977 50.5688
0.711571 54.083 50.0541
0.716728 54.189 49.5368
0.721921 54.295 49.0173
0.727153 54.402 48.4961
0.732422 54.507 47.9739
0.737729 54.613 47.4514
0.743075 54.718 46.9298
0.748460 54.822 46.4098
0.753883 54.927 45.8919
0.759346 55.032 45.3767
0.764849 55.138 44.8645
0.770391 55.244 44.3554
0.775974 55.350 43.8496
0.781597 55.457 43.3470
0.787261 55.565 42.8479
0.792966 55.673 42.3521
0.798712 55.782 41.8597
0.804500 55.891 41.3706
0.810329 56.001 40.8849
0.816201 56.111 40.4023
0.822116 56.222 39.9230
0.828073 56.333 39.4467
0.834074 56.445 38.9735
0.840118 56.558 38.5032
0.846206 56.670 38.0357
0.852338 56.784 37.5709
0.858514 56.898 37.1087
0.864735 57.012 36.6489
0.871001 57.127 36.1913
0.877313 57.243 35.7359
0.883670 57.359 35.2825
0.890074 57.475 34.8309
0.896524 57.592 34.3810
0.903020 57.710 33.9325
0.909564 57.827 33.4853
0.916155 57.946 33.0391
0.922794 58.064 32.5939
0.929481 58.183 32.1494
0.936216 58.303 31.7053
0.943000 58.423 31.2615
0.949834 58.543 30.8178
0.956717 58.664 30.3740
0.963649 58.785 29.9297
0.970632 58.906 29.4849
0.977666 59.028 29.0392
0.984750 59.150 28.5925
0.991886 59.272 28.1445
0.999074 59.394 27.6949
1.006314 59.517 27.2435
1.013606 59.640 26.7901
1.020951 59.764 26.3344
1.028349 59.887 25.8761
1.035801 60.011 25.4151
1.043307 60.135 24.9510
1.050867 60.259 24.4837
1.058482 60.383 24.0129
1.066152 60.508 23.5385
1.073878 60.632 23.0603
1.081660 60.757 22.5786
1.089498 60.882 22.0934
1.097393 61.006 21.6052
1.105345 61.131 21.1147
1.113355 61.256 20.6224
1.121423 61.381 20.1291
1.129549 61.506 19.6353
1.137734 61.631 19.1414
1.145979 61.756 18.6475
1.154283 61.881 18.1540
1.162647 62.006 17.6608
1.171072 62.131 17.1682
1.179558 62.256 16.6761
1.188106 62.381 16.1847
1.196715 62.506 15.6938
1.205387 62.631 15.2035
1.214122 62.757 14.7139
1.222920 62.882 14.2248
1.231782 63.007 13.7363
1.240708 63.133 13.2483
1.249699 63.258 12.7608
1.258754 63.383 12.2737
1.267876 63.509 11.7869
1.277063 63.635 11.3004
1.286318 63.760 10.8141
1.295639 63.886 10.3278
1.305027 64.012 9.8415
1.314484 64.138 9.3551
1.324009 64.264 8.8684
1.333604 64.390 8.3813
1.343268 64.516 7.8937
1.353002 64.642 7.4054
1.362806 64.769 6.9162
1.372681 64.895 6.4261
1.382628 65.022 5.9349
1.392647 65.149 5.4423
1.402739 65.276 4.9483
1.412904 65.403 4.4527
1.423142 65.530 3.9554
1.433455 65.658 3.4564
1.443843 65.786 2.9556
1.454305 65.913 2.4533
1.464844 66.041 1.9497
1.475459 66.169 1.4453
1.486150 66.297 0.9405
1.496920 66.424 0.4357
1.507767 66.552 -0.0689
1.518693 66.679 -0.5730
1.529698 66.806 -1.0768
1.540783 66.932 -1.5801
1.551948 67.059 -2.0832
1.563194 67.185 -2.5860
1.574521 67.311 -3.0888
1.585931 67.437 -3.5917
1.597423 67.563 -4.0949
1.608999 67.688 -4.5985
1.620658 67.814 -5.1029
1.632402 67.939 -5.6082
1.644232 68.064 -6.1147
1.656146 68.188 -6.6226
1.668147 68.313 -7.1323
1.680235 68.437 -7.6438
1.692411 68.562 -8.1577
1.704675 68.686 -8.6741
1.717028 68.810 -9.1934
1.729470 68.934 -9.7159
1.742003 69.058 -10.2419
1.754626 69.182 -10.7718
1.767341 69.306 -11.3060
1.780147 69.430 -11.8446
1.793047 69.553 -12.3881
1.806040 69.677 -12.9366
1.819128 69.800 -13.4903
1.832310 69.924 -14.0493
1.845587 70.047 -14.6133
1.858961 70.170 -15.1822
1.872432 70.292 -15.7555
1.886001 70.414 -16.3328
1.899667 70.535 -16.9137
1.913433 70.657 -17.4979
1.927299 70.777 -18.0850
1.941265 70.897 -18.6746
1.955332 71.017 -19.2664
1.969501 71.137 -19.8601
1.983773 71.255 -20.4557
1.998148 71.374 -21.0527
2.012627 71.492 -21.6511
2.027212 71.610 -22.2508
2.041902 71.727 -22.8517
2.056698 71.844 -23.4536
2.071602 71.961 -24.0567
2.086614 72.077 -24.6609
2.101734 72.193 -25.2662
2.116964 72.309 -25.8729
2.132304 72.424 -26.4811
2.147756 72.539 -27.0912
2.163320 72.654 -27.7033
2.178996 72.768 -28.3182
2.194786 72.882 -28.9363
2.210690 72.996 -29.5581
2.226710 73.109 -30.1842
2.242845 73.221 -30.8146
2.259098 73.333 -31.4494
2.275468 73.444 -32.0884
2.291957 73.554 -32.7310
2.308566 73.664 -33.3769
2.325295 73.773 -34.0255
2.342145 73.882 -34.6765
2.359117 73.989 -35.3293
2.376212 74.097 -35.9835
2.393431 74.203 -36.6387
2.410775 74.309 -37.2946
2.428244 74.415 -37.9509
2.445840 74.519 -38.6073
2.463564 74.624 -39.2636
2.481416 74.727 -39.9198
2.499397 74.831 -40.5760
2.517509 74.933 -41.2323
2.535752 75.036 -41.8894
2.554127 75.137 -42.5479
2.572635 75.238 -43.2087
2.591277 75.338 -43.8727
2.610055 75.438 -44.5406
2.628968 75.536 -45.2125
2.648019 75.634 -45.8885
2.667208 75.731 -46.5681
2.686535 75.827 -47.2509
2.706003 75.922 -47.9362
2.725612 76.016 -48.6235
2.745363 76.110 -49.3119
2.765257 76.203 -50.0009
2.785295 76.295 -50.6898
2.805478 76.386 -51.3781
2.825808 76.476 -52.0654
2.846285 76.566 -52.7512
2.866910 76.655 -53.4356
2.887685 76.744 -54.1185
2.908611 76.832 -54.8007
2.929688 76.919 -55.4828
2.950917 77.005 -56.1660
2.972301 77.091 -56.8512
2.993839 77.175 -57.5391
3.015534 77.259 -58.2298
3.037386 77.341 -58.9232
3.059396 77.423 -59.6188
3.081565 77.503 -60.3159
3.103896 77.583 -61.0138
3.126388 77.662 -61.7116
3.149043 77.740 -62.4087
3.171862 77.817 -63.1041
3.194847 77.893 -63.7973
3.217998 77.969 -64.4878
3.241317 78.044 -65.1752
3.264805 78.118 -65.8598
3.288463 78.192 -66.5421
3.312293 78.265 -67.2227
3.336295 78.337 -67.9028
3.360471 78.408 -68.5832
3.384822 78.478 -69.2640
3.409350 78.547 -69.9455
3.434056 78.615 -70.6274
3.458940 78.682 -71.3091
3.484005 78.749 -71.9900
3.509252 78.814 -72.6696
3.534681 78.879 -73.3471
3.560295 78.944 -74.0219
3.586094 79.007 -74.6935
3.612081 79.070 -75.3617
3.638255 79.133 -76.0265
3.664620 79.194 -76.6883
3.691175 79.256 -77.3476
3.717923 79.316 -78.0052
3.744864 79.375 -78.6616
3.772001 79.434 -79.3169
3.799335 79.492 -79.9712
3.826866 79.549 -80.6242
3.854597 79.606 -81.2757
3.882529 79.662 -81.9251
3.910664 79.717 -82.5721
3.939002 79.772 -83.2163
3.967546 79.827 -83.8574
3.996296 79.881 -84.4953
4.025255 79.934 -85.1301
4.054423 79.987 -85.7621
4.083804 80.040 -86.3918
4.113396 80.092 -87.0194
4.143204 80.143 -87.6453
4.173227 80.194 -88.2696
4.203468 80.245 -88.8922
4.233928 80.295 -89.5132
4.264609 80.344 -90.1324
4.295512 80.393 -90.7498
4.326639 80.441 -91.3653
4.357992 80.490 -91.9788
4.389572 80.537 -92.5906
4.421380 80.585 -93.2007
4.453419 80.632 -93.8095
4.485691 80.679 -94.4171
4.518196 80.725 -95.0237
4.550936 80.770 -95.6294
4.583914 80.816 -96.2341
4.617131 80.860 -96.8379
4.650589 80.905 -97.4408
4.684289 80.948 -98.0427
4.718233 80.992 -98.6439
4.752424 81.035 -99.2445
4.786862 81.077 -99.8447
4.821549 81.119 -100.4446
4.856488 81.160 -101.0445
4.891680 81.201 -101.6442
4.927127 81.241 -102.2438
4.962831 81.281 -102.8429
4.998794 81.319 -103.4416
5.035017 81.358 -104.0396
5.071503 81.395 -104.6369
5.108253 81.432 -105.2337
5.145270 81.468 -105.8301
5.182555 81.503 -106.4264
5.220110 81.537 -107.0227
5.257937 81.571 -107.6188
5.296038 81.604 -108.2144
5.334415 81.635 -108.8091
5.373071 81.666 -109.4024
5.412006 81.697 -109.9941
5.451224 81.726 -110.5837
5.490725 81.754 -111.1714
5.530514 81.781 -111.7573
5.570590 81.807 -112.3414
5.610957 81.832 -112.9238
5.651616 81.856 -113.5041
5.692570 81.879 -114.0818
5.733821 81.901 -114.6564
5.775370 81.923 -115.2272
5.817221 81.943 -115.7938
5.859375 81.962 -116.3560
5.901834 81.980 -116.9137
5.944602 81.997 -117.4670
5.987679 82.013 -118.0158
6.031068 82.029 -118.5600
6.074771 82.043 -119.0991
6.118792 82.057 -119.6327
6.163131 82.070 -120.1604
6.207792 82.082 -120.6817
6.252776 82.094 -121.1966
6.298086 82.105 -121.7049
6.343725 82.115 -122.2067
6.389694 82.125 -122.7022
6.435996 82.134 -123.1914
6.482634 82.143 -123.6742
6.529610 82.152 -124.1506
6.576926 82.160 -124.6205
6.624585 82.169 -125.0838
6.672590 82.177 -125.5407
6.720942 82.185 -125.9913
6.769645 82.193 -126.4360
6.818700 82.201 -126.8753
6.868111 82.209 -127.3096
6.917881 82.217 -127.7393
6.968010 82.226 -128.1647
7.018504 82.234 -128.5859
7.069362 82.243 -129.0032
7.120590 82.252 -129.4170
7.172189 82.262 -129.8280
7.224161 82.271 -130.2367
7.276511 82.281 -130.6437
7.329239 82.291 -131.0496
7.382350 82.302 -131.4546
7.435845 82.312 -131.8589
7.489729 82.323 -132.2628
7.544002 82.333 -132.6668
7.598669 82.344 -133.0712
7.653732 82.355 -133.4763
7.709194 82.365 -133.8826
7.765058 82.376 -134.2901
7.821327 82.386 -134.6989
7.878004 82.396 -135.1090
7.935091 82.405 -135.5202
7.992592 82.414 -135.9325
8.050510 82.423 -136.3459
8.108847 82.431 -136.7602
8.167607 82.438 -137.1755
8.226793 82.445 -137.5912
8.286408 82.451 -138.0071
8.346454 82.457 -138.4226
8.406936 82.461 -138.8374
8.467856 82.465 -139.2512
8.529218 82.468 -139.6636
8.591024 82.470 -140.0742
8.653278 82.471 -140.4826
8.715983 82.472 -140.8882
8.779143 82.472 -141.2905
8.842760 82.471 -141.6893
8.906839 82.469 -142.0841
8.971381 82.467 -142.4748
9.036392 82.464 -142.8610
9.101873 82.461 -143.2425
9.167829 82.457 -143.6190
9.234263 82.453 -143.9904
9.301178 82.448 -144.3566
9.368578 82.444 -144.7177
9.436467 82.439 -145.0737
9.504847 82.434 -145.4247
9.573723 82.429 -145.7709
9.643099 82.424 -146.1124
9.712976 82.419 -146.4494
9.783361 82.414 -146.7823
9.854255 82.410 -147.1114
9.925663 82.405 -147.4370
9.997588 82.401 -147.7595
10.070035 82.397 -148.0790
10.143007 82.393 -148.3960
10.216507 82.390 -148.7107
10.290540 82.386 -149.0236
10.365109 82.383 -149.3347
10.440219 82.380 -149.6442
10.515873 82.377 -149.9524
10.592076 82.374 -150.2593
10.668830 82.371 -150.5650
10.746141 82.369 -150.8695
10.824012 82.366 -151.1728
10.902447 82.363 -151.4748
10.981451 82.361 -151.7755
11.061027 82.358 -152.0748
11.141180 82.356 -152.3726
11.221913 82.353 -152.6689
11.303232 82.351 -152.9635
11.385140 82.348 -153.2565
11.467641 82.346 -153.5480
11.550741 82.344 -153.8380
11.634442 82.342 -154.1267
11.718750 82.340 -154.4143
11.803669 82.338 -154.7012
11.889203 82.337 -154.9877
11.975357 82.336 -155.2742
12.062136 82.335 -155.5612
12.149543 82.334 -155.8491
12.237583 82.333 -156.1384
12.326262 82.332 -156.4293
12.415583 82.331 -156.7222
12.505552 82.330 -157.0173
12.596172 82.329 -157.3146
12.687449 82.326 -157.6140
12.779387 82.324 -157.9149
12.871992 82.320 -158.2170
12.965268 82.315 -158.5193
13.059220 82.310 -158.8209
13.153852 82.303 -159.1204
13.249170 82.295 -159.4165
13.345179 82.285 -159.7077
13.441884 82.274 -159.9924
13.539289 82.262 -160.2690
13.637401 82.249 -160.5359
13.736223 82.236 -160.7920
13.835761 82.221 -161.0361
13.936021 82.207 -161.2676
14.037007 82.192 -161.4861
14.138725 82.178 -161.6918
14.241180 82.165 -161.8853
14.344377 82.152 -162.0678
14.448323 82.141 -162.2407
14.553021 82.131 -162.4059
14.658478 82.123 -162.5656
14.764700 82.117 -162.7220
14.871691 82.111 -162.8771
14.979457 82.107 -163.0331
15.088005 82.105 -163.1914
15.197339 82.102 -163.3531
15.307465 82.101 -163.5187
15.418389 82.099 -163.6880
15.530117 82.097 -163.8600
15.642655 82.094 -164.0335
15.756008 82.091 -164.2064
15.870182 82.087 -164.3767
15.985184 82.082 -164.5420
16.101019 82.077 -164.7005
16.217694 82.071 -164.8504
16.335214 82.066 -164.9910
16.453586 82.062 -165.1223
16.572815 82.059 -165.2453
16.692909 82.058 -165.3622
16.813872 82.059 -165.4759
16.935713 82.062 -165.5904
17.058436 82.067 -165.7098
17.182048 82.075 -165.8385
17.306556 82.084 -165.9804
17.431967 82.094 -166.1385
17.558286 82.104 -166.3149
17.685521 82.114 -166.5099
17.813677 82.122 -166.7223
17.942762 82.128 -166.9489
18.072783 82.130 -167.1855
18.203746 82.129 -167.4263
18.335658 82.125 -167.6649
18.468526 82.116 -167.8948
18.602356 82.105 -168.1100
18.737156 82.092 -168.3055
18.872934 82.078 -168.4781
19.009695 82.063 -168.6268
19.147447 82.050 -168.7527
19.286197 82.038 -168.8595
19.425953 82.030 -168.9527
19.566721 82.025 -169.0392
19.708510 82.023 -169.1263
19.851326 82.024 -169.2211
19.995177 82.027 -169.3290
20.140070 82.032 -169.4532
20.286013 82.035 -169.5944
20.433014 82.038 -169.7501
20.581080 82.038 -169.9153
20.730219 82.034 -170.0830
20.880439 82.028 -170.2448
21.031747 82.019 -170.3924
21.184152 82.008 -170.5188
21.337661 81.996 -170.6192
21.492282 81.986 -170.6924
21.648024 81.978 -170.7409
21.804895 81.975 -170.7714
21.962902 81.977 -170.7939
22.122054 81.985 -170.8207
22.282360 81.999 -170.8647
22.443827 82.017 -170.9378
22.606464 82.037 -171.0490
22.770280 82.059 -171.2032
22.935283 82.078 -171.4009
23.101481 82.094 -171.6372
23.268884 82.104 -171.9033
23.437500 82.108 -172.1873
23.607338 82.104 -172.4755
23.778406 82.094 -172.7546
23.950714 82.078 -173.0129
24.124271 82.058 -173.2422
24.299086 82.036 -173.4385
24.475167 82.013 -173.6023
24.652524 81.992 -173.7384
24.831166 81.974 -173.8551
25.011103 81.958 -173.9618
25.192344 81.945 -174.0681
25.374898 81.934 -174.1815
25.558775 81.925 -174.3061
25.743984 81.914 -174.4426
25.930536 81.902 -174.5879
26.118439 81.888 -174.7364
26.307704 81.872 -174.8811
26.498341 81.853 -175.0157
26.690359 81.834 -175.1355
26.883768 81.814 -175.2388
27.078579 81.795 -175.3269
27.274801 81.778 -175.4035
27.472446 81.763 -175.4738
27.671522 81.750 -175.5421
27.872042 81.738 -175.6107
28.074014 81.725 -175.6785
28.277450 81.713 -175.7410
28.482360 81.700 -175.7906
28.688755 81.686 -175.8186
28.896645 81.675 -175.8183
29.106042 81.667 -175.7868
29.316957 81.665 -175.7281
29.529400 81.672 -175.6536
29.743382 81.689 -175.5818
29.958915 81.716 -175.5357
30.176009 81.753 -175.5390
30.394677 81.797 -175.6118
30.614929 81.843 -175.7663
30.836778 81.887 -176.0048
31.060234 81.925 -176.3192
31.285309 81.954 -176.6918
31.512015 81.971 -177.0987
31.740364 81.975 -177.5129
31.970368 81.968 -177.9085
32.202039 81.952 -178.2642
32.435388 81.929 -178.5655
32.670428 81.904 -178.8063
32.907171 81.879 -178.9889
33.145630 81.856 -179.1224
33.385817 81.839 -179.2205
33.627745 81.827 -179.2984
33.871425 81.820 -179.3707
34.116871 81.817 -179.4491
34.364096 81.818 -179.5412
34.613113 81.820 -179.6506
34.863934 81.822 -179.7770
35.116572 81.824 -179.9173
35.371041 81.825 179.9332
35.627354 81.824 179.7796
35.885525 81.821 179.6265
36.145566 81.818 179.4767
36.407492 81.815 179.3311
36.671316 81.811 179.1885
36.937051 81.809 179.0462
37.204712 81.806 178.9013
37.474313 81.804 178.7516
37.745867 81.801 178.5967
38.019389 81.797 178.4380
38.294893 81.792 178.2788
38.572394 81.786 178.1227
38.851905 81.779 177.9730
39.133442 81.773 177.8308
39.417019 81.767 177.6948
39.702651 81.762 177.5615
39.990353 81.758 177.4257
40.280140 81.755 177.2827
40.572026 81.753 177.1292
40.866028 81.749 176.9653
41.162160 81.745 176.7944
41.460438 81.738 176.6223
41.760877 81.730 176.4557
42.063494 81.721 176.2995
42.368303 81.713 176.1555
42.675322 81.706 176.0209
42.984565 81.702 175.8900
43.296048 81.701 175.7552
43.609789 81.701 175.6100
43.925804 81.704 175.4501
44.244108 81.706 175.2739
44.564719 81.709 175.0818
44.887654 81.710 174.8759
45.212928 81.710 174.6588
45.540560 81.707 174.4359
45.870565 81.701 174.2150
46.202962 81.692 174.0072
46.537768 81.679 173.8238
46.875000 81.665 173.6734
47.214676 81.651 173.5578
47.556813 81.641 173.4710
47.901429 81.633 173.4009
48.248542 81.629 173.3344
48.598171 81.627 173.2615
48.950334 81.625 173.1777
49.305048 81.623 173.0834
49.662333 81.619 172.9806
50.022206 81.614 172.8705
50.384688 81.608 172.7528
50.749796 81.600 172.6262
51.117550 81.590 172.4893
51.487969 81.579 172.3416
51.861072 81.567 172.1824
52.236879 81.553 172.0115
52.615409 81.537 171.8293
52.996681 81.520 171.6381
53.380717 81.503 171.4424
53.767536 81.484 171.2469
54.157158 81.467 171.0550
54.549603 81.451 170.8672
54.944892 81.437 170.6818
55.343045 81.427 170.4962
55.744084 81.419 170.3083
56.148028 81.413 170.1164
56.554900 81.408 169.9195
56.964720 81.403 169.7184
57.377510 81.397 169.5173
57.793291 81.388 169.3234
58.212085 81.376 169.1456
58.633914 81.360 168.9904
59.058799 81.342 168.8593
59.486764 81.323 168.7490
59.917829 81.302 168.6526
60.352019 81.280 168.5609
60.789354 81.256 168.4639
61.229859 81.230 168.3551
61.673556 81.201 168.2357
62.120468 81.168 168.1180
62.570618 81.134 168.0195
63.024031 81.101 167.9500
63.480729 81.077 167.8997
63.940736 81.064 167.8387
64.404077 81.063 167.7318
64.870776 81.069 167.5580
65.340856 81.076 167.3214
65.814343 81.082 167.0473
66.291261 81.085 166.7689
66.771635 81.086 166.5132
67.255489 81.086 166.2936
67.742850 81.088 166.1083
68.233743 81.091 165.9449
68.728193 81.093 165.7905
69.226226 81.091 165.6398
69.727867 81.083 165.4980
70.233144 81.068 165.3737
70.742083 81.048 165.2689
71.254709 81.022 165.1763
71.771050 80.993 165.0836
72.291132 80.959 164.9817
72.814984 80.922 164.8664
73.342631 80.883 164.7368
73.874102 80.843 164.5911
74.409424 80.803 164.4271
74.948626 80.763 164.2452
75.491734 80.725 164.0510
76.038779 80.688 163.8552
76.589787 80.654 163.6693
77.144788 80.625 163.4990
77.703811 80.602 163.3407
78.266885 80.584 163.1851
78.834039 80.569 163.0239
79.405303 80.557 162.8549
79.980706 80.543 162.6813
80.560280 80.528 162.5085
81.144053 80.509 162.3416
81.732056 80.487 162.1851
82.324320 80.462 162.0422
82.920876 80.435 161.9134
83.521755 80.406 161.7956
84.126988 80.378 161.6827
84.736607 80.350 161.5678
85.350643 80.323 161.4454
85.969129 80.296 161.3127
86.592097 80.269 161.1686
87.219579 80.243 161.0111
87.851608 80.217 160.8361
88.488217 80.190 160.6398
89.129439 80.162 160.4233
89.775308 80.130 160.1929
90.425856 80.094 159.9573
91.081119 80.054 159.7277
91.741131 80.010 159.5197
92.405925 79.964 159.3486
