* Measurement data measured by REW V5.31.3
* Source: Headset (CX31993 HIFI AUDIO), MICROPHONE (Master Volume), R, volume: 0.250
* Format: 256k Log Swept Sine, 1 sweep at -12.0 dBFS with no timing reference
* Dated: 03 3, 25 11:10:31 AM
* REW Settings:
*  C-weighting compensation: Off
*  Target level: 75.0 dB
* Note: ; 
* Measurement: Moondrop Aria nobass R
* Smoothing: 1/12 octave
* Frequency Step: 96 ppo
* Start Frequency: 0.36621094 Hz
*
* Freq(Hz) SPL(dB) Phase(degrees)
0.366211 30.177 56.9479
0.368865 30.201 56.8912
0.371538 30.238 56.8073
0.374230 30.282 56.7037
0.376942 30.332 56.5869
0.379673 30.386 56.4616
0.382424 30.442 56.3308
0.385196 30.499 56.1966
0.387987 30.558 56.0599
0.390798 30.617 55.9215
0.393630 30.676 55.7816
0.396483 30.737 55.6404
0.399356 30.797 55.4981
0.402250 30.858 55.3547
0.405165 30.920 55.2102
0.408101 30.982 55.0647
0.411058 31.044 54.9182
0.414037 31.107 54.7706
0.417037 31.170 54.6221
0.420059 31.234 54.4725
0.423103 31.298 54.3220
0.426169 31.363 54.1706
0.429257 31.428 54.0182
0.432368 31.494 53.8649
0.435501 31.560 53.7106
0.438656 31.627 53.5555
0.441835 31.694 53.3995
0.445037 31.761 53.2425
0.448262 31.829 53.0847
0.451510 31.898 52.9261
0.454782 31.967 52.7666
0.458077 32.037 52.6062
0.461397 32.107 52.4450
0.464740 32.177 52.2830
0.468108 32.248 52.1201
0.471500 32.320 51.9564
0.474917 32.392 51.7920
0.478358 32.465 51.6267
0.481825 32.538 51.4606
0.485316 32.612 51.2937
0.488833 32.686 51.1260
0.492375 32.761 50.9575
0.495943 32.836 50.7882
0.499537 32.912 50.6182
0.503157 32.988 50.4473
0.506803 33.065 50.2757
0.510475 33.143 50.1032
0.514175 33.221 49.9299
0.517900 33.300 49.7559
0.521653 33.379 49.5810
0.525434 33.459 49.4053
0.529241 33.539 49.2287
0.533076 33.620 49.0514
0.536939 33.701 48.8731
0.540830 33.784 48.6941
0.544749 33.866 48.5141
0.548696 33.950 48.3333
0.552673 34.034 48.1515
0.556677 34.118 47.9689
0.560711 34.203 47.7853
0.564774 34.289 47.6008
0.568867 34.376 47.4153
0.572989 34.463 47.2288
0.577141 34.550 47.0413
0.581324 34.639 46.8527
0.585536 34.728 46.6631
0.589779 34.817 46.4724
0.594053 34.907 46.2806
0.598358 34.998 46.0877
0.602694 35.090 45.8936
0.607061 35.182 45.6983
0.611460 35.275 45.5018
0.615891 35.369 45.3039
0.620354 35.463 45.1048
0.624849 35.558 44.9044
0.629377 35.653 44.7026
0.633938 35.750 44.4993
0.638532 35.847 44.2946
0.643159 35.944 44.0885
0.647819 36.043 43.8807
0.652514 36.142 43.6714
0.657242 36.242 43.4605
0.662005 36.342 43.2478
0.666802 36.444 43.0335
0.671634 36.546 42.8174
0.676501 36.648 42.5994
0.681403 36.752 42.3796
0.686341 36.856 42.1578
0.691314 36.961 41.9340
0.696324 37.067 41.7082
0.701370 37.173 41.4803
0.706452 37.279 41.2503
0.711571 37.386 41.0182
0.716728 37.493 40.7841
0.721921 37.599 40.5480
0.727153 37.704 40.3102
0.732422 37.807 40.0708
0.737729 37.907 39.8304
0.743075 38.006 39.5893
0.748460 38.103 39.3477
0.753883 38.199 39.1059
0.759346 38.295 38.8642
0.764849 38.390 38.6226
0.770391 38.485 38.3811
0.775974 38.579 38.1399
0.781597 38.674 37.8990
0.787261 38.768 37.6583
0.792966 38.862 37.4179
0.798712 38.957 37.1777
0.804500 39.051 36.9379
0.810329 39.146 36.6983
0.816201 39.240 36.4590
0.822116 39.334 36.2200
0.828073 39.428 35.9813
0.834074 39.523 35.7428
0.840118 39.617 35.5046
0.846206 39.711 35.2666
0.852338 39.806 35.0288
0.858514 39.900 34.7912
0.864735 39.994 34.5538
0.871001 40.089 34.3165
0.877313 40.183 34.0794
0.883670 40.278 33.8424
0.890074 40.372 33.6054
0.896524 40.467 33.3685
0.903020 40.562 33.1316
0.909564 40.657 32.8948
0.916155 40.752 32.6578
0.922794 40.847 32.4208
0.929481 40.942 32.1836
0.936216 41.038 31.9463
0.943000 41.133 31.7088
0.949834 41.229 31.4710
0.956717 41.325 31.2329
0.963649 41.421 30.9945
0.970632 41.518 30.7556
0.977666 41.615 30.5164
0.984750 41.712 30.2766
0.991886 41.809 30.0363
0.999074 41.907 29.7954
1.006314 42.005 29.5538
1.013606 42.104 29.3115
1.020951 42.203 29.0684
1.028349 42.302 28.8245
1.035801 42.402 28.5796
1.043307 42.503 28.3338
1.050867 42.604 28.0870
1.058482 42.705 27.8392
1.066152 42.807 27.5902
1.073878 42.910 27.3400
1.081660 43.013 27.0888
1.089498 43.117 26.8365
1.097393 43.221 26.5832
1.105345 43.326 26.3292
1.113355 43.430 26.0745
1.121423 43.535 25.8193
1.129549 43.641 25.5637
1.137734 43.746 25.3078
1.145979 43.851 25.0517
1.154283 43.957 24.7954
1.162647 44.062 24.5390
1.171072 44.168 24.2824
1.179558 44.273 24.0257
1.188106 44.379 23.7689
1.196715 44.485 23.5119
1.205387 44.591 23.2550
1.214122 44.697 22.9979
1.222920 44.803 22.7408
1.231782 44.910 22.4837
1.240708 45.016 22.2266
1.249699 45.123 21.9695
1.258754 45.229 21.7124
1.267876 45.336 21.4553
1.277063 45.443 21.1983
1.286318 45.551 20.9414
1.295639 45.658 20.6846
1.305027 45.766 20.4278
1.314484 45.874 20.1713
1.324009 45.982 19.9148
1.333604 46.091 19.6586
1.343268 46.200 19.4025
1.353002 46.309 19.1467
1.362806 46.419 18.8910
1.372681 46.528 18.6357
1.382628 46.639 18.3806
1.392647 46.749 18.1259
1.402739 46.860 17.8715
1.412904 46.972 17.6175
1.423142 47.084 17.3639
1.433455 47.196 17.1110
1.443843 47.309 16.8589
1.454305 47.423 16.6077
1.464844 47.536 16.3577
1.475459 47.650 16.1093
1.486150 47.764 15.8626
1.496920 47.879 15.6178
1.507767 47.993 15.3750
1.518693 48.108 15.1340
1.529698 48.223 14.8947
1.540783 48.338 14.6569
1.551948 48.453 14.4204
1.563194 48.569 14.1850
1.574521 48.684 13.9503
1.585931 48.800 13.7162
1.597423 48.915 13.4825
1.608999 49.031 13.2488
1.620658 49.148 13.0150
1.632402 49.264 12.7808
1.644232 49.381 12.5460
1.656146 49.497 12.3104
1.668147 49.615 12.0738
1.680235 49.732 11.8358
1.692411 49.850 11.5964
1.704675 49.968 11.3553
1.717028 50.086 11.1123
1.729470 50.205 10.8673
1.742003 50.324 10.6199
1.754626 50.443 10.3702
1.767341 50.563 10.1180
1.780147 50.683 9.8633
1.793047 50.804 9.6061
1.806040 50.925 9.3465
1.819128 51.047 9.0850
1.832310 51.168 8.8220
1.845587 51.291 8.5582
1.858961 51.413 8.2940
1.872432 51.536 8.0301
1.886001 51.659 7.7664
1.899667 51.782 7.5031
1.913433 51.905 7.2400
1.927299 52.029 6.9770
1.941265 52.153 6.7139
1.955332 52.277 6.4503
1.969501 52.401 6.1861
1.983773 52.525 5.9209
1.998148 52.650 5.6544
2.012627 52.775 5.3864
2.027212 52.900 5.1166
2.041902 53.025 4.8447
2.056698 53.151 4.5704
2.071602 53.277 4.2935
2.086614 53.403 4.0137
2.101734 53.530 3.7308
2.116964 53.657 3.4445
2.132304 53.784 3.1549
2.147756 53.911 2.8617
2.163320 54.039 2.5651
2.178996 54.167 2.2655
2.194786 54.295 1.9633
2.210690 54.424 1.6590
2.226710 54.553 1.3535
2.242845 54.682 1.0470
2.259098 54.811 0.7399
2.275468 54.941 0.4322
2.291957 55.070 0.1237
2.308566 55.200 -0.1858
2.325295 55.330 -0.4966
2.342145 55.460 -0.8090
2.359117 55.590 -1.1235
2.376212 55.721 -1.4404
2.393431 55.851 -1.7601
2.410775 55.982 -2.0830
2.428244 56.113 -2.4095
2.445840 56.244 -2.7400
2.463564 56.375 -3.0748
2.481416 56.506 -3.4143
2.499397 56.637 -3.7586
2.517509 56.768 -4.1078
2.535752 56.900 -4.4619
2.554127 57.031 -4.8207
2.572635 57.162 -5.1835
2.591277 57.294 -5.5500
2.610055 57.425 -5.9194
2.628968 57.557 -6.2916
2.648019 57.688 -6.6662
2.667208 57.819 -7.0433
2.686535 57.951 -7.4230
2.706003 58.082 -7.8055
2.725612 58.213 -8.1909
2.745363 58.344 -8.5796
2.765257 58.475 -8.9718
2.785295 58.606 -9.3679
2.805478 58.736 -9.7682
2.825808 58.867 -10.1730
2.846285 58.997 -10.5825
2.866910 59.127 -10.9972
2.887685 59.256 -11.4171
2.908611 59.385 -11.8425
2.929688 59.514 -12.2732
2.950917 59.643 -12.7091
2.972301 59.771 -13.1499
2.993839 59.899 -13.5954
3.015534 60.026 -14.0451
3.037386 60.153 -14.4987
3.059396 60.280 -14.9560
3.081565 60.406 -15.4169
3.103896 60.532 -15.8810
3.126388 60.657 -16.3483
3.149043 60.781 -16.8187
3.171862 60.905 -17.2922
3.194847 61.029 -17.7688
3.217998 61.151 -18.2487
3.241317 61.274 -18.7321
3.264805 61.395 -19.2191
3.288463 61.516 -19.7103
3.312293 61.635 -20.2058
3.336295 61.755 -20.7060
3.360471 61.873 -21.2107
3.384822 61.990 -21.7199
3.409350 62.107 -22.2329
3.434056 62.223 -22.7493
3.458940 62.337 -23.2683
3.484005 62.451 -23.7894
3.509252 62.564 -24.3120
3.534681 62.676 -24.8355
3.560295 62.787 -25.3596
3.586094 62.897 -25.8841
3.612081 63.007 -26.4090
3.638255 63.115 -26.9347
3.664620 63.222 -27.4617
3.691175 63.328 -27.9907
3.717923 63.432 -28.5221
3.744864 63.536 -29.0561
3.772001 63.638 -29.5923
3.799335 63.739 -30.1300
3.826866 63.839 -30.6683
3.854597 63.938 -31.2060
3.882529 64.035 -31.7423
3.910664 64.132 -32.2760
3.939002 64.227 -32.8064
3.967546 64.322 -33.3330
3.996296 64.415 -33.8557
4.025255 64.507 -34.3749
4.054423 64.598 -34.8913
4.083804 64.687 -35.4054
4.113396 64.776 -35.9176
4.143204 64.863 -36.4278
4.173227 64.949 -36.9355
4.203468 65.033 -37.4397
4.233928 65.117 -37.9395
4.264609 65.200 -38.4336
4.295512 65.282 -38.9212
4.326639 65.363 -39.4013
4.357992 65.443 -39.8735
4.389572 65.523 -40.3376
4.421380 65.602 -40.7940
4.453419 65.680 -41.2431
4.485691 65.757 -41.6854
4.518196 65.833 -42.1209
4.550936 65.909 -42.5496
4.583914 65.984 -42.9711
4.617131 66.059 -43.3849
4.650589 66.134 -43.7905
4.684289 66.209 -44.1873
4.718233 66.284 -44.5747
4.752424 66.359 -44.9524
4.786862 66.434 -45.3203
4.821549 66.510 -45.6785
4.856488 66.585 -46.0276
4.891680 66.661 -46.3681
4.927127 66.737 -46.7008
4.962831 66.814 -47.0264
4.998794 66.891 -47.3454
5.035017 66.970 -47.6585
5.071503 67.049 -47.9658
5.108253 67.130 -48.2673
5.145270 67.212 -48.5630
5.182555 67.295 -48.8529
5.220110 67.379 -49.1373
5.257937 67.465 -49.4172
5.296038 67.552 -49.6939
5.334415 67.640 -49.9690
5.373071 67.729 -50.2441
5.412006 67.820 -50.5206
5.451224 67.912 -50.7995
5.490725 68.006 -51.0812
5.530514 68.101 -51.3659
5.570590 68.198 -51.6535
5.610957 68.296 -51.9447
5.651616 68.396 -52.2402
5.692570 68.496 -52.5415
5.733821 68.598 -52.8501
5.775370 68.700 -53.1673
5.817221 68.803 -53.4943
5.859375 68.907 -53.8317
5.901834 69.012 -54.1797
5.944602 69.117 -54.5380
5.987679 69.222 -54.9066
6.031068 69.328 -55.2856
6.074771 69.434 -55.6751
6.118792 69.539 -56.0756
6.163131 69.644 -56.4875
6.207792 69.749 -56.9111
6.252776 69.852 -57.3466
6.298086 69.955 -57.7938
6.343725 70.057 -58.2520
6.389694 70.158 -58.7203
6.435996 70.258 -59.1977
6.482634 70.356 -59.6833
6.529610 70.453 -60.1763
6.576926 70.548 -60.6763
6.624585 70.641 -61.1830
6.672590 70.732 -61.6960
6.720942 70.822 -62.2145
6.769645 70.909 -62.7372
6.818700 70.995 -63.2623
6.868111 71.079 -63.7882
6.917881 71.160 -64.3137
6.968010 71.240 -64.8378
7.018504 71.318 -65.3602
7.069362 71.393 -65.8803
7.120590 71.467 -66.3971
7.172189 71.539 -66.9094
7.224161 71.610 -67.4157
7.276511 71.679 -67.9146
7.329239 71.747 -68.4053
7.382350 71.813 -68.8872
7.435845 71.878 -69.3602
7.489729 71.943 -69.8241
7.544002 72.007 -70.2786
7.598669 72.070 -70.7233
7.653732 72.133 -71.1578
7.709194 72.196 -71.5820
7.765058 72.259 -71.9959
7.821327 72.322 -72.4001
7.878004 72.386 -72.7955
7.935091 72.450 -73.1831
7.992592 72.515 -73.5638
8.050510 72.581 -73.9384
8.108847 72.649 -74.3077
8.167607 72.717 -74.6727
8.226793 72.787 -75.0346
8.286408 72.858 -75.3953
8.346454 72.930 -75.7562
8.406936 73.003 -76.1190
8.467856 73.078 -76.4849
8.529218 73.153 -76.8547
8.591024 73.230 -77.2295
8.653278 73.308 -77.6106
8.715983 73.386 -77.9992
8.779143 73.465 -78.3962
8.842760 73.543 -78.8024
8.906839 73.622 -79.2181
8.971381 73.701 -79.6433
9.036392 73.780 -80.0780
9.101873 73.858 -80.5221
9.167829 73.934 -80.9754
9.234263 74.010 -81.4375
9.301178 74.085 -81.9076
9.368578 74.158 -82.3846
9.436467 74.229 -82.8671
9.504847 74.299 -83.3539
9.573723 74.367 -83.8438
9.643099 74.432 -84.3354
9.712976 74.496 -84.8272
9.783361 74.558 -85.3172
9.854255 74.617 -85.8038
9.925663 74.675 -86.2851
9.997588 74.731 -86.7599
10.070035 74.785 -87.2269
10.143007 74.838 -87.6844
10.216507 74.890 -88.1310
10.290540 74.940 -88.5656
10.365109 74.990 -88.9875
10.440219 75.039 -89.3963
10.515873 75.088 -89.7916
10.592076 75.137 -90.1735
10.668830 75.187 -90.5421
10.746141 75.237 -90.8981
10.824012 75.288 -91.2426
10.902447 75.341 -91.5771
10.981451 75.395 -91.9033
11.061027 75.451 -92.2229
11.141180 75.509 -92.5380
11.221913 75.569 -92.8510
11.303232 75.631 -93.1646
11.385140 75.695 -93.4812
11.467641 75.760 -93.8031
11.550741 75.827 -94.1326
11.634442 75.896 -94.4717
11.718750 75.965 -94.8225
11.803669 76.035 -95.1863
11.889203 76.105 -95.5640
11.975357 76.175 -95.9560
12.062136 76.244 -96.3624
12.149543 76.311 -96.7826
12.237583 76.377 -97.2156
12.326262 76.441 -97.6595
12.415583 76.503 -98.1121
12.505552 76.561 -98.5709
12.596172 76.617 -99.0330
12.687449 76.669 -99.4951
12.779387 76.718 -99.9536
12.871992 76.764 -100.4049
12.965268 76.807 -100.8458
13.059220 76.848 -101.2731
13.153852 76.886 -101.6839
13.249170 76.923 -102.0758
13.345179 76.958 -102.4473
13.441884 76.993 -102.7976
13.539289 77.029 -103.1267
13.637401 77.065 -103.4355
13.736223 77.103 -103.7261
13.835761 77.142 -104.0013
13.936021 77.185 -104.2647
14.037007 77.230 -104.5206
14.138725 77.278 -104.7736
14.241180 77.330 -105.0287
14.344377 77.384 -105.2904
14.448323 77.440 -105.5631
14.553021 77.499 -105.8501
14.658478 77.558 -106.1543
14.764700 77.618 -106.4773
14.871691 77.677 -106.8194
14.979457 77.736 -107.1798
15.088005 77.792 -107.5567
15.197339 77.847 -107.9474
15.307465 77.899 -108.3482
15.418389 77.948 -108.7549
15.530117 77.994 -109.1636
15.642655 78.037 -109.5699
15.756008 78.078 -109.9703
15.870182 78.117 -110.3618
15.985184 78.154 -110.7425
16.101019 78.191 -111.1119
16.217694 78.229 -111.4703
16.335214 78.266 -111.8195
16.453586 78.305 -112.1626
16.572815 78.346 -112.5032
16.692909 78.388 -112.8453
16.813872 78.432 -113.1934
16.935713 78.477 -113.5511
17.058436 78.522 -113.9217
17.182048 78.567 -114.3069
17.306556 78.612 -114.7074
17.431967 78.655 -115.1223
17.558286 78.696 -115.5492
17.685521 78.734 -115.9846
17.813677 78.768 -116.4238
17.942762 78.800 -116.8618
18.072783 78.828 -117.2934
18.203746 78.854 -117.7137
18.335658 78.878 -118.1187
18.468526 78.900 -118.5055
18.602356 78.922 -118.8728
18.737156 78.944 -119.2207
18.872934 78.967 -119.5509
19.009695 78.993 -119.8665
19.147447 79.020 -120.1712
19.286197 79.050 -120.4695
19.425953 79.082 -120.7659
19.566721 79.117 -121.0642
19.708510 79.153 -121.3677
19.851326 79.191 -121.6786
19.995177 79.230 -121.9981
20.140070 79.269 -122.3264
20.286013 79.308 -122.6631
20.433014 79.347 -123.0074
20.581080 79.386 -123.3584
20.730219 79.424 -123.7153
20.880439 79.462 -124.0776
21.031747 79.498 -124.4450
21.184152 79.534 -124.8172
21.337661 79.569 -125.1939
21.492282 79.603 -125.5740
21.648024 79.635 -125.9558
21.804895 79.664 -126.3366
21.962902 79.692 -126.7129
22.122054 79.717 -127.0803
22.282360 79.740 -127.4346
22.443827 79.762 -127.7716
22.606464 79.783 -128.0889
22.770280 79.805 -128.3855
22.935283 79.829 -128.6634
23.101481 79.855 -128.9268
23.268884 79.885 -129.1827
23.437500 79.919 -129.4397
23.607338 79.957 -129.7072
23.778406 79.998 -129.9941
23.950714 80.041 -130.3074
24.124271 80.084 -130.6510
24.299086 80.126 -131.0253
24.475167 80.165 -131.4269
24.652524 80.200 -131.8489
24.831166 80.230 -132.2823
25.011103 80.254 -132.7165
25.192344 80.274 -133.1414
25.374898 80.290 -133.5484
25.558775 80.303 -133.9318
25.743984 80.316 -134.2896
25.930536 80.329 -134.6232
26.118439 80.345 -134.9380
26.307704 80.363 -135.2415
26.498341 80.385 -135.5429
26.690359 80.409 -135.8508
26.883768 80.435 -136.1721
27.078579 80.461 -136.5110
27.274801 80.486 -136.8680
27.472446 80.509 -137.2394
27.671522 80.527 -137.6184
27.872042 80.542 -137.9953
28.074014 80.552 -138.3592
28.277450 80.559 -138.6994
28.482360 80.563 -139.0073
28.688755 80.566 -139.2776
28.896645 80.571 -139.5102
29.106042 80.579 -139.7101
29.316957 80.592 -139.8870
29.529400 80.611 -140.0538
29.743382 80.635 -140.2246
29.958915 80.664 -140.4119
30.176009 80.696 -140.6244
30.394677 80.729 -140.8662
30.614929 80.761 -141.1369
30.836778 80.791 -141.4326
31.060234 80.818 -141.7483
31.285309 80.843 -142.0799
31.512015 80.865 -142.4253
31.740364 80.884 -142.7842
31.970368 80.900 -143.1572
32.202039 80.911 -143.5427
32.435388 80.917 -143.9351
32.670428 80.917 -144.3238
32.907171 80.911 -144.6944
33.145630 80.899 -145.0323
33.385817 80.887 -145.3280
33.627745 80.876 -145.5821
33.871425 80.871 -145.8079
34.116871 80.873 -146.0303
34.364096 80.884 -146.2788
34.613113 80.899 -146.5784
34.863934 80.913 -146.9392
35.116572 80.921 -147.3505
35.371041 80.918 -147.7813
35.627354 80.903 -148.1873
35.885525 80.879 -148.5238
36.145566 80.854 -148.7602
36.407492 80.836 -148.8922
36.671316 80.834 -148.9468
36.937051 80.853 -148.9766
37.204712 80.892 -149.0439
37.474313 80.947 -149.2003
37.745867 81.007 -149.4715
38.019389 81.064 -149.8510
38.294893 81.111 -150.3067
38.572394 81.144 -150.7930
38.851905 81.166 -151.2664
39.133442 81.180 -151.6970
39.417019 81.191 -152.0737
39.702651 81.202 -152.4026
39.990353 81.216 -152.6992
40.280140 81.232 -152.9793
40.572026 81.249 -153.2524
40.866028 81.265 -153.5203
41.162160 81.280 -153.7797
41.460438 81.295 -154.0276
41.760877 81.309 -154.2648
42.063494 81.325 -154.4970
42.368303 81.340 -154.7323
42.675322 81.355 -154.9776
42.984565 81.369 -155.2357
43.296048 81.379 -155.5041
43.609789 81.386 -155.7765
43.925804 81.390 -156.0459
44.244108 81.392 -156.3066
44.564719 81.392 -156.5567
44.887654 81.391 -156.7982
45.212928 81.392 -157.0360
45.540560 81.393 -157.2759
45.870565 81.396 -157.5228
46.202962 81.397 -157.7789
46.537768 81.399 -158.0426
46.875000 81.399 -158.3099
47.214676 81.398 -158.5756
47.556813 81.397 -158.8357
47.901429 81.396 -159.0891
48.248542 81.396 -159.3373
48.598171 81.398 -159.5837
48.950334 81.400 -159.8314
49.305048 81.402 -160.0821
49.662333 81.405 -160.3358
50.022206 81.408 -160.5909
50.384688 81.410 -160.8448
50.749796 81.411 -161.0951
51.117550 81.413 -161.3401
51.487969 81.416 -161.5800
51.861072 81.419 -161.8169
52.236879 81.424 -162.0545
52.615409 81.429 -162.2964
52.996681 81.436 -162.5449
53.380717 81.442 -162.7997
53.767536 81.448 -163.0593
54.157158 81.454 -163.3233
54.549603 81.460 -163.5922
54.944892 81.465 -163.8668
55.343045 81.467 -164.1443
55.744084 81.466 -164.4175
56.148028 81.462 -164.6757
56.554900 81.456 -164.9091
56.964720 81.448 -165.1131
57.377510 81.441 -165.2891
57.793291 81.436 -165.4430
58.212085 81.433 -165.5826
58.633914 81.432 -165.7166
59.058799 81.434 -165.8558
59.486764 81.437 -166.0111
59.917829 81.441 -166.1908
60.352019 81.443 -166.3953
60.789354 81.442 -166.6172
61.229859 81.437 -166.8457
61.673556 81.431 -167.0732
62.120468 81.425 -167.2990
62.570618 81.419 -167.5280
63.024031 81.413 -167.7651
63.480729 81.408 -168.0115
63.940736 81.402 -168.2640
64.404077 81.396 -168.5177
64.870776 81.390 -168.7674
65.340856 81.384 -169.0092
65.814343 81.379 -169.2412
66.291261 81.374 -169.4636
66.771635 81.371 -169.6783
67.255489 81.368 -169.8873
67.742850 81.365 -170.0915
68.233743 81.361 -170.2905
68.728193 81.356 -170.4837
69.226226 81.351 -170.6705
69.727867 81.343 -170.8508
70.233144 81.335 -171.0253
70.742083 81.326 -171.1952
71.254709 81.317 -171.3610
71.771050 81.307 -171.5229
72.291132 81.298 -171.6821
72.814984 81.291 -171.8436
73.342631 81.286 -172.0166
73.874102 81.282 -172.2103
74.409424 81.279 -172.4274
74.948626 81.273 -172.6621
75.491734 81.266 -172.9031
76.038779 81.256 -173.1396
76.589787 81.245 -173.3647
77.144788 81.233 -173.5753
77.703811 81.222 -173.7723
78.266885 81.210 -173.9578
78.834039 81.199 -174.1332
79.405303 81.187 -174.2979
79.980706 81.177 -174.4517
80.560280 81.167 -174.5981
81.144053 81.159 -174.7448
81.732056 81.152 -174.8997
82.324320 81.145 -175.0666
82.920876 81.137 -175.2456
83.521755 81.128 -175.4342
84.126988 81.117 -175.6289
84.736607 81.104 -175.8249
85.350643 81.089 -176.0171
85.969129 81.074 -176.2015
86.592097 81.058 -176.3772
87.219579 81.043 -176.5458
87.851608 81.028 -176.7098
88.488217 81.014 -176.8715
89.129439 81.001 -177.0326
89.775308 80.989 -177.1948
90.425856 80.976 -177.3588
91.081119 80.963 -177.5232
91.741131 80.948 -177.6849
92.405925 80.933 -177.8411
93.075536 80.916 -177.9907
93.750000 80.898 -178.1342
94.429351 80.880 -178.2730
