* Measurement data measured by REW V5.31.3
* Source: Headset (CX31993 HIFI AUDIO), MICROPHONE (Master Volume), R, volume: 0.250
* Format: 256k Log Swept Sine, 1 sweep at -12.0 dBFS with no timing reference
* Dated: 02 3, 25 11:24:00 AM
* REW Settings:
*  C-weighting compensation: Off
*  Target level: 75.0 dB
* Note: ; 
* Measurement: Moondrop Starfield 300 R
* Smoothing: 1/12 octave
* Frequency Step: 96 ppo
* Start Frequency: 0.36621094 Hz
*
* Freq(Hz) SPL(dB) Phase(degrees)
0.366211 41.941 138.8811
0.368865 41.949 138.7936
0.371538 41.960 138.6631
0.374230 41.974 138.5006
0.376942 41.990 138.3151
0.379673 42.006 138.1136
0.382424 42.024 137.9005
0.385196 42.042 137.6785
0.387987 42.060 137.4493
0.390798 42.078 137.2137
0.393630 42.097 136.9721
0.396483 42.116 136.7247
0.399356 42.135 136.4716
0.402250 42.154 136.2129
0.405165 42.173 135.9485
0.408101 42.193 135.6784
0.411058 42.212 135.4025
0.414037 42.232 135.1208
0.417037 42.252 134.8333
0.420059 42.271 134.5398
0.423103 42.292 134.2404
0.426169 42.312 133.9350
0.429257 42.332 133.6235
0.432368 42.353 133.3060
0.435501 42.373 132.9823
0.438656 42.394 132.6525
0.441835 42.415 132.3164
0.445037 42.436 131.9741
0.448262 42.458 131.6256
0.451510 42.479 131.2707
0.454782 42.501 130.9095
0.458077 42.522 130.5419
0.461397 42.544 130.1679
0.464740 42.566 129.7875
0.468108 42.589 129.4007
0.471500 42.611 129.0074
0.474917 42.633 128.6076
0.478358 42.656 128.2013
0.481825 42.679 127.7884
0.485316 42.702 127.3691
0.488833 42.725 126.9432
0.492375 42.749 126.5107
0.495943 42.772 126.0718
0.499537 42.796 125.6262
0.503157 42.820 125.1741
0.506803 42.844 124.7155
0.510475 42.868 124.2503
0.514175 42.893 123.7785
0.517900 42.917 123.3002
0.521653 42.942 122.8155
0.525434 42.967 122.3242
0.529241 42.992 121.8264
0.533076 43.017 121.3221
0.536939 43.043 120.8114
0.540830 43.068 120.2943
0.544749 43.094 119.7708
0.548696 43.120 119.2410
0.552673 43.147 118.7047
0.556677 43.173 118.1622
0.560711 43.200 117.6134
0.564774 43.226 117.0584
0.568867 43.253 116.4972
0.572989 43.281 115.9299
0.577141 43.308 115.3564
0.581324 43.336 114.7768
0.585536 43.363 114.1913
0.589779 43.391 113.5997
0.594053 43.420 113.0023
0.598358 43.448 112.3989
0.602694 43.477 111.7897
0.607061 43.505 111.1747
0.611460 43.535 110.5540
0.615891 43.564 109.9276
0.620354 43.593 109.2955
0.624849 43.623 108.6579
0.629377 43.653 108.0147
0.633938 43.683 107.3660
0.638532 43.713 106.7119
0.643159 43.744 106.0524
0.647819 43.774 105.3875
0.652514 43.805 104.7174
0.657242 43.837 104.0420
0.662005 43.868 103.3613
0.666802 43.900 102.6755
0.671634 43.932 101.9846
0.676501 43.964 101.2886
0.681403 43.996 100.5875
0.686341 44.029 99.8814
0.691314 44.062 99.1703
0.696324 44.095 98.4543
0.701370 44.129 97.7333
0.706452 44.164 97.0075
0.711571 44.199 96.2770
0.716728 44.236 95.5417
0.721921 44.276 94.8020
0.727153 44.319 94.0581
0.732422 44.366 93.3103
0.737729 44.417 92.5593
0.743075 44.474 91.8056
0.748460 44.534 91.0497
0.753883 44.598 90.2924
0.759346 44.665 89.5340
0.764849 44.734 88.7752
0.770391 44.805 88.0163
0.775974 44.878 87.2577
0.781597 44.954 86.4999
0.787261 45.031 85.7432
0.792966 45.110 84.9878
0.798712 45.191 84.2343
0.804500 45.274 83.4827
0.810329 45.359 82.7335
0.816201 45.446 81.9869
0.822116 45.534 81.2430
0.828073 45.624 80.5023
0.834074 45.716 79.7647
0.840118 45.810 79.0305
0.846206 45.905 78.2999
0.852338 46.002 77.5731
0.858514 46.101 76.8500
0.864735 46.201 76.1308
0.871001 46.303 75.4156
0.877313 46.407 74.7045
0.883670 46.512 73.9974
0.890074 46.618 73.2944
0.896524 46.726 72.5956
0.903020 46.835 71.9008
0.909564 46.946 71.2101
0.916155 47.058 70.5233
0.922794 47.172 69.8406
0.929481 47.286 69.1616
0.936216 47.402 68.4865
0.943000 47.519 67.8150
0.949834 47.637 67.1471
0.956717 47.756 66.4826
0.963649 47.876 65.8214
0.970632 47.996 65.1632
0.977666 48.118 64.5081
0.984750 48.240 63.8558
0.991886 48.363 63.2061
0.999074 48.486 62.5587
1.006314 48.610 61.9137
1.013606 48.734 61.2706
1.020951 48.859 60.6294
1.028349 48.983 59.9897
1.035801 49.108 59.3515
1.043307 49.232 58.7144
1.050867 49.357 58.0783
1.058482 49.481 57.4430
1.066152 49.605 56.8083
1.073878 49.729 56.1741
1.081660 49.852 55.5406
1.089498 49.976 54.9079
1.097393 50.099 54.2764
1.105345 50.222 53.6466
1.113355 50.346 53.0191
1.121423 50.470 52.3945
1.129549 50.595 51.7732
1.137734 50.721 51.1555
1.145979 50.848 50.5416
1.154283 50.976 49.9318
1.162647 51.105 49.3260
1.171072 51.234 48.7244
1.179558 51.365 48.1268
1.188106 51.496 47.5334
1.196715 51.628 46.9441
1.205387 51.761 46.3589
1.214122 51.895 45.7776
1.222920 52.030 45.2004
1.231782 52.165 44.6270
1.240708 52.301 44.0574
1.249699 52.438 43.4915
1.258754 52.575 42.9293
1.267876 52.713 42.3706
1.277063 52.852 41.8153
1.286318 52.991 41.2633
1.295639 53.130 40.7145
1.305027 53.271 40.1686
1.314484 53.411 39.6257
1.324009 53.552 39.0855
1.333604 53.693 38.5480
1.343268 53.834 38.0128
1.353002 53.976 37.4800
1.362806 54.118 36.9492
1.372681 54.260 36.4205
1.382628 54.402 35.8935
1.392647 54.544 35.3682
1.402739 54.686 34.8443
1.412904 54.827 34.3218
1.423142 54.969 33.8006
1.433455 55.110 33.2806
1.443843 55.252 32.7619
1.454305 55.392 32.2447
1.464844 55.533 31.7294
1.475459 55.673 31.2162
1.486150 55.814 30.7057
1.496920 55.954 30.1982
1.507767 56.094 29.6938
1.518693 56.234 29.1927
1.529698 56.373 28.6947
1.540783 56.513 28.1997
1.551948 56.652 27.7077
1.563194 56.792 27.2183
1.574521 56.931 26.7314
1.585931 57.070 26.2467
1.597423 57.210 25.7641
1.608999 57.349 25.2833
1.620658 57.488 24.8041
1.632402 57.627 24.3261
1.644232 57.766 23.8492
1.656146 57.905 23.3731
1.668147 58.043 22.8975
1.680235 58.182 22.4222
1.692411 58.321 21.9469
1.704675 58.459 21.4714
1.717028 58.598 20.9953
1.729470 58.737 20.5185
1.742003 58.875 20.0407
1.754626 59.014 19.5615
1.767341 59.152 19.0809
1.780147 59.291 18.5985
1.793047 59.430 18.1143
1.806040 59.568 17.6281
1.819128 59.707 17.1400
1.832310 59.845 16.6502
1.845587 59.983 16.1590
1.858961 60.121 15.6667
1.872432 60.258 15.1737
1.886001 60.395 14.6802
1.899667 60.531 14.1865
1.913433 60.668 13.6929
1.927299 60.803 13.1993
1.941265 60.939 12.7061
1.955332 61.074 12.2133
1.969501 61.209 11.7209
1.983773 61.343 11.2290
1.998148 61.477 10.7377
2.012627 61.611 10.2470
2.027212 61.744 9.7568
2.041902 61.877 9.2673
2.056698 62.010 8.7783
2.071602 62.143 8.2898
2.086614 62.276 7.8018
2.101734 62.409 7.3142
2.116964 62.541 6.8269
2.132304 62.674 6.3399
2.147756 62.806 5.8530
2.163320 62.938 5.3661
2.178996 63.070 4.8791
2.194786 63.202 4.3919
2.210690 63.334 3.9044
2.226710 63.465 3.4167
2.242845 63.596 2.9286
2.259098 63.726 2.4403
2.275468 63.856 1.9518
2.291957 63.986 1.4633
2.308566 64.115 0.9748
2.325295 64.243 0.4865
2.342145 64.371 -0.0016
2.359117 64.499 -0.4894
2.376212 64.626 -0.9768
2.393431 64.753 -1.4638
2.410775 64.880 -1.9503
2.428244 65.007 -2.4363
2.445840 65.133 -2.9218
2.463564 65.259 -3.4068
2.481416 65.385 -3.8912
2.499397 65.511 -4.3752
2.517509 65.637 -4.8587
2.535752 65.763 -5.3419
2.554127 65.888 -5.8248
2.572635 66.014 -6.3075
2.591277 66.139 -6.7900
2.610055 66.263 -7.2726
2.628968 66.388 -7.7551
2.648019 66.511 -8.2376
2.667208 66.635 -8.7201
2.686535 66.758 -9.2026
2.706003 66.880 -9.6851
2.725612 67.002 -10.1675
2.745363 67.124 -10.6499
2.765257 67.246 -11.1323
2.785295 67.367 -11.6146
2.805478 67.489 -12.0969
2.825808 67.610 -12.5793
2.846285 67.731 -13.0617
2.866910 67.852 -13.5441
2.887685 67.973 -14.0266
2.908611 68.094 -14.5093
2.929688 68.214 -14.9920
2.950917 68.335 -15.4748
2.972301 68.455 -15.9577
2.993839 68.575 -16.4408
3.015534 68.695 -16.9240
3.037386 68.814 -17.4074
3.059396 68.933 -17.8912
3.081565 69.052 -18.3753
3.103896 69.171 -18.8600
3.126388 69.289 -19.3453
3.149043 69.407 -19.8314
3.171862 69.526 -20.3184
3.194847 69.644 -20.8065
3.217998 69.761 -21.2956
3.241317 69.879 -21.7859
3.264805 69.997 -22.2774
3.288463 70.115 -22.7702
3.312293 70.232 -23.2640
3.336295 70.350 -23.7589
3.360471 70.467 -24.2548
3.384822 70.584 -24.7516
3.409350 70.701 -25.2496
3.434056 70.817 -25.7488
3.458940 70.934 -26.2493
3.484005 71.050 -26.7516
3.509252 71.166 -27.2557
3.534681 71.281 -27.7619
3.560295 71.397 -28.2705
3.586094 71.512 -28.7817
3.612081 71.627 -29.2958
3.638255 71.742 -29.8127
3.664620 71.857 -30.3328
3.691175 71.971 -30.8557
3.717923 72.085 -31.3816
3.744864 72.199 -31.9103
3.772001 72.313 -32.4417
3.799335 72.426 -32.9758
3.826866 72.539 -33.5126
3.854597 72.651 -34.0520
3.882529 72.763 -34.5942
3.910664 72.874 -35.1393
3.939002 72.985 -35.6876
3.967546 73.096 -36.2391
3.996296 73.206 -36.7942
4.025255 73.315 -37.3531
4.054423 73.424 -37.9161
4.083804 73.532 -38.4832
4.113396 73.640 -39.0542
4.143204 73.747 -39.6290
4.173227 73.853 -40.2074
4.203468 73.959 -40.7888
4.233928 74.063 -41.3730
4.264609 74.167 -41.9598
4.295512 74.271 -42.5490
4.326639 74.373 -43.1406
4.357992 74.474 -43.7349
4.389572 74.574 -44.3322
4.421380 74.674 -44.9330
4.453419 74.772 -45.5374
4.485691 74.869 -46.1456
4.518196 74.965 -46.7571
4.550936 75.061 -47.3712
4.583914 75.154 -47.9872
4.617131 75.247 -48.6044
4.650589 75.339 -49.2220
4.684289 75.429 -49.8395
4.718233 75.518 -50.4570
4.752424 75.606 -51.0745
4.786862 75.692 -51.6925
4.821549 75.777 -52.3115
4.856488 75.861 -52.9316
4.891680 75.943 -53.5523
4.927127 76.024 -54.1729
4.962831 76.103 -54.7922
4.998794 76.181 -55.4092
5.035017 76.258 -56.0229
5.071503 76.333 -56.6326
5.108253 76.407 -57.2381
5.145270 76.480 -57.8396
5.182555 76.551 -58.4376
5.220110 76.621 -59.0321
5.257937 76.689 -59.6230
5.296038 76.756 -60.2096
5.334415 76.822 -60.7910
5.373071 76.886 -61.3661
5.412006 76.950 -61.9338
5.451224 77.012 -62.4935
5.490725 77.073 -63.0447
5.530514 77.134 -63.5876
5.570590 77.193 -64.1222
5.610957 77.252 -64.6488
5.651616 77.309 -65.1673
5.692570 77.366 -65.6773
5.733821 77.422 -66.1784
5.775370 77.478 -66.6698
5.817221 77.534 -67.1512
5.859375 77.590 -67.6220
5.901834 77.645 -68.0824
5.944602 77.700 -68.5324
5.987679 77.756 -68.9725
6.031068 77.811 -69.4032
6.074771 77.867 -69.8250
6.118792 77.923 -70.2383
6.163131 77.980 -70.6435
6.207792 78.038 -71.0405
6.252776 78.097 -71.4296
6.298086 78.156 -71.8110
6.343725 78.217 -72.1852
6.389694 78.278 -72.5533
6.435996 78.341 -72.9166
6.482634 78.404 -73.2763
6.529610 78.469 -73.6337
6.576926 78.536 -73.9895
6.624585 78.603 -74.3442
6.672590 78.672 -74.6984
6.720942 78.743 -75.0527
6.769645 78.814 -75.4082
6.818700 78.887 -75.7663
6.868111 78.961 -76.1285
6.917881 79.036 -76.4960
6.968010 79.112 -76.8696
7.018504 79.189 -77.2497
7.069362 79.266 -77.6367
7.120590 79.345 -78.0311
7.172189 79.423 -78.4333
7.224161 79.502 -78.8440
7.276511 79.581 -79.2640
7.329239 79.660 -79.6936
7.382350 79.739 -80.1330
7.435845 79.818 -80.5821
7.489729 79.896 -81.0405
7.544002 79.973 -81.5077
7.598669 80.050 -81.9832
7.653732 80.125 -82.4668
7.709194 80.200 -82.9582
7.765058 80.273 -83.4570
7.821327 80.344 -83.9624
7.878004 80.414 -84.4734
7.935091 80.483 -84.9889
7.992592 80.550 -85.5074
8.050510 80.615 -86.0281
8.108847 80.679 -86.5503
8.167607 80.740 -87.0732
8.226793 80.800 -87.5957
8.286408 80.858 -88.1165
8.346454 80.915 -88.6342
8.406936 80.970 -89.1477
8.467856 81.023 -89.6561
8.529218 81.075 -90.1587
8.591024 81.126 -90.6550
8.653278 81.175 -91.1442
8.715983 81.224 -91.6256
8.779143 81.272 -92.0985
8.842760 81.319 -92.5626
8.906839 81.365 -93.0178
8.971381 81.412 -93.4642
9.036392 81.458 -93.9023
9.101873 81.505 -94.3322
9.167829 81.551 -94.7544
9.234263 81.598 -95.1693
9.301178 81.646 -95.5779
9.368578 81.694 -95.9809
9.436467 81.744 -96.3799
9.504847 81.793 -96.7758
9.573723 81.844 -97.1698
9.643099 81.896 -97.5628
9.712976 81.949 -97.9561
9.783361 82.002 -98.3510
9.854255 82.056 -98.7488
9.925663 82.111 -99.1504
9.997588 82.166 -99.5567
10.070035 82.221 -99.9683
10.143007 82.277 -100.3859
10.216507 82.333 -100.8099
10.290540 82.388 -101.2406
10.365109 82.443 -101.6782
10.440219 82.497 -102.1224
10.515873 82.551 -102.5727
10.592076 82.603 -103.0286
10.668830 82.655 -103.4895
10.746141 82.705 -103.9546
10.824012 82.754 -104.4229
10.902447 82.801 -104.8932
10.981451 82.847 -105.3644
11.061027 82.891 -105.8353
11.141180 82.934 -106.3049
11.221913 82.975 -106.7719
11.303232 83.015 -107.2353
11.385140 83.054 -107.6939
11.467641 83.092 -108.1468
11.550741 83.128 -108.5936
11.634442 83.164 -109.0334
11.718750 83.199 -109.4659
11.803669 83.233 -109.8908
11.889203 83.267 -110.3081
11.975357 83.301 -110.7180
12.062136 83.335 -111.1209
12.149543 83.369 -111.5172
12.237583 83.403 -111.9077
12.326262 83.438 -112.2930
12.415583 83.473 -112.6742
12.505552 83.509 -113.0523
12.596172 83.545 -113.4281
12.687449 83.582 -113.8026
12.779387 83.619 -114.1770
12.871992 83.657 -114.5521
12.965268 83.695 -114.9288
13.059220 83.733 -115.3076
13.153852 83.772 -115.6894
13.249170 83.810 -116.0744
13.345179 83.849 -116.4631
13.441884 83.887 -116.8555
13.539289 83.925 -117.2515
13.637401 83.962 -117.6511
13.736223 83.999 -118.0539
13.835761 84.035 -118.4593
13.936021 84.070 -118.8668
14.037007 84.104 -119.2756
14.138725 84.138 -119.6850
14.241180 84.170 -120.0940
14.344377 84.201 -120.5018
14.448323 84.232 -120.9076
14.553021 84.262 -121.3104
14.658478 84.291 -121.7096
14.764700 84.319 -122.1046
14.871691 84.347 -122.4951
14.979457 84.374 -122.8809
15.088005 84.402 -123.2620
15.197339 84.429 -123.6388
15.307465 84.457 -124.0120
15.418389 84.485 -124.3825
15.530117 84.514 -124.7513
15.642655 84.543 -125.1198
15.756008 84.573 -125.4894
15.870182 84.603 -125.8615
15.985184 84.634 -126.2374
16.101019 84.664 -126.6184
16.217694 84.695 -127.0052
16.335214 84.725 -127.3984
16.453586 84.755 -127.7980
16.572815 84.784 -128.2035
16.692909 84.812 -128.6141
16.813872 84.839 -129.0283
16.935713 84.863 -129.4444
17.058436 84.887 -129.8604
17.182048 84.909 -130.2742
17.306556 84.929 -130.6839
17.431967 84.948 -131.0875
17.558286 84.966 -131.4837
17.685521 84.984 -131.8718
17.813677 85.001 -132.2515
17.942762 85.018 -132.6234
18.072783 85.036 -132.9886
18.203746 85.055 -133.3490
18.335658 85.074 -133.7066
18.468526 85.094 -134.0639
18.602356 85.115 -134.4231
18.737156 85.136 -134.7860
18.872934 85.157 -135.1540
19.009695 85.178 -135.5275
19.147447 85.199 -135.9061
19.286197 85.218 -136.2887
19.425953 85.235 -136.6729
19.566721 85.251 -137.0562
19.708510 85.266 -137.4356
19.851326 85.279 -137.8082
19.995177 85.290 -138.1713
20.140070 85.302 -138.5232
20.286013 85.312 -138.8631
20.433014 85.324 -139.1912
20.581080 85.336 -139.5090
20.730219 85.350 -139.8192
20.880439 85.366 -140.1252
21.031747 85.383 -140.4309
21.184152 85.402 -140.7400
21.337661 85.422 -141.0561
21.492282 85.443 -141.3818
21.648024 85.465 -141.7186
21.804895 85.486 -142.0668
21.962902 85.506 -142.4255
22.122054 85.524 -142.7926
22.282360 85.541 -143.1654
22.443827 85.556 -143.5407
22.606464 85.569 -143.9153
22.770280 85.580 -144.2863
22.935283 85.590 -144.6514
23.101481 85.599 -145.0092
23.268884 85.607 -145.3589
23.437500 85.615 -145.7008
23.607338 85.623 -146.0355
23.778406 85.631 -146.3643
23.950714 85.639 -146.6884
24.124271 85.647 -147.0092
24.299086 85.656 -147.3277
24.475167 85.666 -147.6449
24.652524 85.675 -147.9614
24.831166 85.685 -148.2776
25.011103 85.695 -148.5938
25.192344 85.705 -148.9103
25.374898 85.716 -149.2274
25.558775 85.726 -149.5455
25.743984 85.737 -149.8649
25.930536 85.747 -150.1856
26.118439 85.758 -150.5076
26.307704 85.768 -150.8304
26.498341 85.777 -151.1535
26.690359 85.787 -151.4758
26.883768 85.796 -151.7962
27.078579 85.804 -152.1136
27.274801 85.812 -152.4275
27.472446 85.821 -152.7376
27.671522 85.829 -153.0443
27.872042 85.838 -153.3486
28.074014 85.848 -153.6520
28.277450 85.857 -153.9558
28.482360 85.867 -154.2614
28.688755 85.876 -154.5689
28.896645 85.885 -154.8778
29.106042 85.892 -155.1863
29.316957 85.898 -155.4916
29.529400 85.903 -155.7908
29.743382 85.907 -156.0811
29.958915 85.911 -156.3610
30.176009 85.915 -156.6308
30.394677 85.920 -156.8925
30.614929 85.925 -157.1501
30.836778 85.932 -157.4082
31.060234 85.940 -157.6713
31.285309 85.947 -157.9424
31.512015 85.954 -158.2222
31.740364 85.960 -158.5088
31.970368 85.963 -158.7985
32.202039 85.964 -159.0865
32.435388 85.964 -159.3688
32.670428 85.962 -159.6434
32.907171 85.960 -159.9106
33.145630 85.958 -160.1732
33.385817 85.957 -160.4349
33.627745 85.955 -160.6990
33.871425 85.953 -160.9666
34.116871 85.949 -161.2363
34.364096 85.944 -161.5042
34.613113 85.938 -161.7658
34.863934 85.932 -162.0180
35.116572 85.926 -162.2607
35.371041 85.922 -162.4976
35.627354 85.920 -162.7352
35.885525 85.920 -162.9802
36.145566 85.920 -163.2367
36.407492 85.920 -163.5042
36.671316 85.918 -163.7771
36.937051 85.915 -164.0461
37.204712 85.910 -164.3019
37.474313 85.906 -164.5390
37.745867 85.903 -164.7582
38.019389 85.905 -164.9670
38.294893 85.911 -165.1777
38.572394 85.921 -165.4031
38.851905 85.933 -165.6525
39.133442 85.946 -165.9285
39.417019 85.956 -166.2270
39.702651 85.963 -166.5388
39.990353 85.967 -166.8532
40.280140 85.967 -167.1608
40.572026 85.966 -167.4561
40.866028 85.963 -167.7375
41.162160 85.959 -168.0059
41.460438 85.955 -168.2639
41.760877 85.951 -168.5136
42.063494 85.947 -168.7568
42.368303 85.943 -168.9947
42.675322 85.940 -169.2288
42.984565 85.936 -169.4610
43.296048 85.932 -169.6931
43.609789 85.928 -169.9269
43.925804 85.924 -170.1631
44.244108 85.919 -170.4014
44.564719 85.913 -170.6408
44.887654 85.906 -170.8799
45.212928 85.899 -171.1175
45.540560 85.891 -171.3530
45.870565 85.884 -171.5867
46.202962 85.876 -171.8196
46.537768 85.869 -172.0532
46.875000 85.862 -172.2890
47.214676 85.855 -172.5277
47.556813 85.847 -172.7684
47.901429 85.839 -173.0090
48.248542 85.830 -173.2469
48.598171 85.820 -173.4801
48.950334 85.811 -173.7079
49.305048 85.802 -173.9312
49.662333 85.793 -174.1519
50.022206 85.784 -174.3714
50.384688 85.776 -174.5902
50.749796 85.768 -174.8079
51.117550 85.759 -175.0241
51.487969 85.750 -175.2385
51.861072 85.742 -175.4516
52.236879 85.733 -175.6641
52.615409 85.724 -175.8762
52.996681 85.715 -176.0878
53.380717 85.706 -176.2992
53.767536 85.697 -176.5108
54.157158 85.687 -176.7233
54.549603 85.677 -176.9364
54.944892 85.666 -177.1490
55.343045 85.654 -177.3593
55.744084 85.642 -177.5659
56.148028 85.630 -177.7681
56.554900 85.617 -177.9662
56.964720 85.604 -178.1606
57.377510 85.590 -178.3513
57.793291 85.577 -178.5382
58.212085 85.564 -178.7211
58.633914 85.551 -178.9009
59.058799 85.539 -179.0796
59.486764 85.527 -179.2610
59.917829 85.516 -179.4491
60.352019 85.505 -179.6460
60.789354 85.492 -179.8501
61.229859 85.478 179.9441
61.673556 85.462 179.7427
62.120468 85.446 179.5484
62.570618 85.431 179.3596
63.024031 85.415 179.1732
63.480729 85.400 178.9876
63.940736 85.385 178.8036
64.404077 85.370 178.6212
64.870776 85.356 178.4392
65.340856 85.340 178.2570
65.814343 85.325 178.0768
66.291261 85.308 177.9020
66.771635 85.291 177.7326
67.255489 85.275 177.5646
67.742850 85.258 177.3948
68.233743 85.239 177.2250
68.728193 85.220 177.0594
69.226226 85.201 176.8986
69.727867 85.181 176.7388
70.233144 85.162 176.5786
70.742083 85.141 176.4234
71.254709 85.122 176.2783
71.771050 85.104 176.1391
72.291132 85.088 175.9935
72.814984 85.074 175.8337
73.342631 85.059 175.6644
73.874102 85.044 175.4943
74.409424 85.029 175.3257
74.948626 85.013 175.1537
75.491734 84.997 174.9782
76.038779 84.980 174.8068
76.589787 84.961 174.6459
77.144788 84.943 174.4914
77.703811 84.926 174.3341
78.266885 84.907 174.1732
78.834039 84.887 174.0169
79.405303 84.867 173.8707
79.980706 84.847 173.7288
80.560280 84.828 173.5822
81.144053 84.808 173.4314
81.732056 84.788 173.2861
82.324320 84.767 173.1521
82.920876 84.748 173.0233
83.521755 84.730 172.8893
84.126988 84.711 172.7495
84.736607 84.691 172.6130
85.350643 84.670 172.4864
85.969129 84.650 172.3651
86.592097 84.630 172.2396
87.219579 84.609 172.1078
87.851608 84.586 171.9772
88.488217 84.562 171.8549
89.129439 84.538 171.7401
89.775308 84.515 171.6266
90.425856 84.492 171.5108
91.081119 84.469 171.3923
91.741131 84.446 171.2738
