* Measurement data measured by REW V5.31.3
* Source: Headset (2- CX31993 HIFI AUDIO), MICROPHONE (Master Volume), R, volume: 0.300
* Format: 256k Log Swept Sine, 1 sweep at -11.9 dBFS with no timing reference
* Dated: 09 24, 25 1:43:28 PM
* REW Settings:
*  C-weighting compensation: Off
*  Target level: 75.0 dB
* Note: ; 
* Measurement: Moondrop Lan2 Ref L
* Smoothing: 1/12 octave
* Frequency Step: 96 ppo
* Start Frequency: 0.36621094 Hz
*
* Freq(Hz) SPL(dB) Phase(degrees)
0.366211 32.660 -15.0032
0.368865 32.661 -15.0448
0.371538 32.662 -15.1069
0.374230 32.663 -15.1846
0.376942 32.664 -15.2736
0.379673 32.666 -15.3707
0.382424 32.667 -15.4739
0.385196 32.669 -15.5819
0.387987 32.671 -15.6940
0.390798 32.672 -15.8099
0.393630 32.674 -15.9291
0.396483 32.676 -16.0518
0.399356 32.678 -16.1778
0.402250 32.679 -16.3072
0.405165 32.681 -16.4399
0.408101 32.683 -16.5759
0.411058 32.685 -16.7153
0.414037 32.686 -16.8580
0.417037 32.688 -17.0042
0.420059 32.690 -17.1538
0.423103 32.692 -17.3067
0.426169 32.694 -17.4632
0.429257 32.696 -17.6230
0.432368 32.697 -17.7864
0.435501 32.699 -17.9532
0.438656 32.701 -18.1235
0.441835 32.703 -18.2973
0.445037 32.705 -18.4746
0.448262 32.707 -18.6554
0.451510 32.709 -18.8398
0.454782 32.711 -19.0277
0.458077 32.713 -19.2191
0.461397 32.715 -19.4141
0.464740 32.717 -19.6127
0.468108 32.719 -19.8148
0.471500 32.721 -20.0205
0.474917 32.723 -20.2298
0.478358 32.725 -20.4427
0.481825 32.727 -20.6591
0.485316 32.729 -20.8792
0.488833 32.731 -21.1029
0.492375 32.733 -21.3302
0.495943 32.736 -21.5611
0.499537 32.738 -21.7956
0.503157 32.740 -22.0338
0.506803 32.742 -22.2756
0.510475 32.744 -22.5211
0.514175 32.746 -22.7702
0.517900 32.749 -23.0230
0.521653 32.751 -23.2795
0.525434 32.753 -23.5397
0.529241 32.756 -23.8035
0.533076 32.758 -24.0711
0.536939 32.760 -24.3424
0.540830 32.762 -24.6175
0.544749 32.765 -24.8964
0.548696 32.767 -25.1790
0.552673 32.770 -25.4654
0.556677 32.772 -25.7557
0.560711 32.774 -26.0499
0.564774 32.777 -26.3480
0.568867 32.779 -26.6500
0.572989 32.782 -26.9560
0.577141 32.784 -27.2660
0.581324 32.787 -27.5801
0.585536 32.789 -27.8983
0.589779 32.792 -28.2207
0.594053 32.794 -28.5473
0.598358 32.797 -28.8783
0.602694 32.800 -29.2136
0.607061 32.802 -29.5533
0.611460 32.805 -29.8976
0.615891 32.808 -30.2465
0.620354 32.810 -30.6002
0.624849 32.813 -30.9587
0.629377 32.816 -31.3221
0.633938 32.818 -31.6907
0.638532 32.821 -32.0644
0.643159 32.824 -32.4436
0.647819 32.827 -32.8282
0.652514 32.829 -33.2186
0.657242 32.832 -33.6148
0.662005 32.835 -34.0171
0.666802 32.838 -34.4257
0.671634 32.841 -34.8409
0.676501 32.844 -35.2628
0.681403 32.847 -35.6918
0.686341 32.850 -36.1282
0.691314 32.853 -36.5722
0.696324 32.856 -37.0242
0.701370 32.859 -37.4847
0.706452 32.862 -37.9542
0.711571 32.864 -38.4331
0.716728 32.867 -38.9224
0.721921 32.869 -39.4227
0.727153 32.871 -39.9354
0.732422 32.873 -40.4618
0.737729 32.873 -41.0032
0.743075 32.873 -41.5611
0.748460 32.872 -42.1366
0.753883 32.871 -42.7304
0.759346 32.869 -43.3430
0.764849 32.867 -43.9747
0.770391 32.864 -44.6257
0.775974 32.860 -45.2960
0.781597 32.856 -45.9856
0.787261 32.852 -46.6944
0.792966 32.847 -47.4223
0.798712 32.842 -48.1692
0.804500 32.836 -48.9351
0.810329 32.830 -49.7198
0.816201 32.824 -50.5232
0.822116 32.817 -51.3452
0.828073 32.810 -52.1856
0.834074 32.802 -53.0443
0.840118 32.794 -53.9212
0.846206 32.786 -54.8161
0.852338 32.778 -55.7289
0.858514 32.769 -56.6596
0.864735 32.760 -57.6080
0.871001 32.751 -58.5741
0.877313 32.741 -59.5579
0.883670 32.732 -60.5593
0.890074 32.722 -61.5783
0.896524 32.712 -62.6150
0.903020 32.701 -63.6694
0.909564 32.691 -64.7418
0.916155 32.681 -65.8322
0.922794 32.670 -66.9410
0.929481 32.660 -68.0683
0.936216 32.649 -69.2147
0.943000 32.639 -70.3805
0.949834 32.628 -71.5662
0.956717 32.618 -72.7724
0.963649 32.607 -73.9997
0.970632 32.597 -75.2490
0.977666 32.587 -76.5211
0.984750 32.578 -77.8170
0.991886 32.568 -79.1378
0.999074 32.559 -80.4845
1.006314 32.550 -81.8587
1.013606 32.542 -83.2616
1.020951 32.534 -84.6948
1.028349 32.527 -86.1602
1.035801 32.520 -87.6594
1.043307 32.515 -89.1945
1.050867 32.511 -90.7676
1.058482 32.508 -92.3811
1.066152 32.509 -94.0371
1.073878 32.513 -95.7382
1.081660 32.524 -97.4866
1.089498 32.544 -99.2843
1.097393 32.576 -101.1324
1.105345 32.621 -103.0312
1.113355 32.680 -104.9791
1.121423 32.752 -106.9734
1.129549 32.834 -109.0097
1.137734 32.924 -111.0830
1.145979 33.023 -113.1876
1.154283 33.129 -115.3175
1.162647 33.241 -117.4663
1.171072 33.360 -119.6278
1.179558 33.484 -121.7959
1.188106 33.614 -123.9647
1.196715 33.750 -126.1287
1.205387 33.891 -128.2828
1.214122 34.038 -130.4222
1.222920 34.190 -132.5430
1.231782 34.346 -134.6414
1.240708 34.508 -136.7146
1.249699 34.674 -138.7601
1.258754 34.845 -140.7761
1.267876 35.021 -142.7612
1.277063 35.200 -144.7148
1.286318 35.384 -146.6362
1.295639 35.571 -148.5258
1.305027 35.762 -150.3837
1.314484 35.956 -152.2109
1.324009 36.153 -154.0083
1.333604 36.352 -155.7771
1.343268 36.555 -157.5188
1.353002 36.759 -159.2348
1.362806 36.966 -160.9270
1.372681 37.174 -162.5969
1.382628 37.383 -164.2464
1.392647 37.594 -165.8772
1.402739 37.805 -167.4907
1.412904 38.016 -169.0885
1.423142 38.228 -170.6715
1.433455 38.441 -172.2398
1.443843 38.653 -173.7930
1.454305 38.867 -175.3289
1.464844 39.082 -176.8444
1.475459 39.299 -178.3351
1.486150 39.520 -179.7966
1.496920 39.744 178.7746
1.507767 39.971 177.3805
1.518693 40.203 176.0218
1.529698 40.439 174.6984
1.540783 40.680 173.4089
1.551948 40.924 172.1520
1.563194 41.171 170.9255
1.574521 41.423 169.7272
1.585931 41.677 168.5549
1.597423 41.934 167.4061
1.608999 42.194 166.2785
1.620658 42.457 165.1697
1.632402 42.722 164.0773
1.644232 42.988 162.9991
1.656146 43.256 161.9327
1.668147 43.525 160.8760
1.680235 43.795 159.8268
1.692411 44.065 158.7831
1.704675 44.336 157.7430
1.717028 44.606 156.7047
1.729470 44.875 155.6661
1.742003 45.143 154.6260
1.754626 45.410 153.5827
1.767341 45.675 152.5352
1.780147 45.937 151.4828
1.793047 46.197 150.4252
1.806040 46.455 149.3632
1.819128 46.709 148.2985
1.832310 46.961 147.2341
1.845587 47.211 146.1736
1.858961 47.459 145.1205
1.872432 47.704 144.0778
1.886001 47.949 143.0474
1.899667 48.192 142.0303
1.913433 48.433 141.0267
1.927299 48.674 140.0362
1.941265 48.913 139.0581
1.955332 49.151 138.0916
1.969501 49.388 137.1356
1.983773 49.624 136.1887
1.998148 49.859 135.2497
2.012627 50.094 134.3173
2.027212 50.327 133.3901
2.041902 50.560 132.4667
2.056698 50.792 131.5457
2.071602 51.023 130.6258
2.086614 51.254 129.7056
2.101734 51.484 128.7838
2.116964 51.714 127.8591
2.132304 51.943 126.9308
2.147756 52.172 125.9980
2.163320 52.401 125.0606
2.178996 52.629 124.1191
2.194786 52.856 123.1748
2.210690 53.083 122.2296
2.226710 53.308 121.2856
2.242845 53.533 120.3448
2.259098 53.756 119.4087
2.275468 53.977 118.4779
2.291957 54.198 117.5529
2.308566 54.417 116.6336
2.325295 54.635 115.7197
2.342145 54.852 114.8105
2.359117 55.068 113.9055
2.376212 55.283 113.0038
2.393431 55.497 112.1044
2.410775 55.710 111.2065
2.428244 55.922 110.3091
2.445840 56.134 109.4112
2.463564 56.345 108.5116
2.481416 56.555 107.6096
2.499397 56.765 106.7042
2.517509 56.975 105.7948
2.535752 57.184 104.8813
2.554127 57.393 103.9638
2.572635 57.600 103.0432
2.591277 57.807 102.1205
2.610055 58.013 101.1971
2.628968 58.218 100.2741
2.648019 58.421 99.3521
2.667208 58.624 98.4319
2.686535 58.825 97.5136
2.706003 59.025 96.5973
2.725612 59.225 95.6828
2.745363 59.423 94.7699
2.765257 59.620 93.8581
2.785295 59.817 92.9468
2.805478 60.012 92.0356
2.825808 60.207 91.1238
2.846285 60.402 90.2106
2.866910 60.595 89.2953
2.887685 60.789 88.3776
2.908611 60.981 87.4568
2.929688 61.173 86.5331
2.950917 61.364 85.6066
2.972301 61.554 84.6778
2.993839 61.742 83.7474
3.015534 61.930 82.8160
3.037386 62.117 81.8844
3.059396 62.302 80.9529
3.081565 62.487 80.0219
3.103896 62.670 79.0915
3.126388 62.852 78.1618
3.149043 63.034 77.2326
3.171862 63.215 76.3038
3.194847 63.395 75.3749
3.217998 63.574 74.4456
3.241317 63.753 73.5152
3.264805 63.930 72.5833
3.288463 64.107 71.6493
3.312293 64.283 70.7130
3.336295 64.458 69.7744
3.360471 64.632 68.8335
3.384822 64.805 67.8908
3.409350 64.977 66.9469
3.434056 65.148 66.0024
3.458940 65.318 65.0576
3.484005 65.486 64.1131
3.509252 65.654 63.1691
3.534681 65.821 62.2256
3.560295 65.987 61.2827
3.586094 66.152 60.3402
3.612081 66.316 59.3976
3.638255 66.480 58.4543
3.664620 66.642 57.5099
3.691175 66.804 56.5638
3.717923 66.965 55.6157
3.744864 67.124 54.6657
3.772001 67.282 53.7142
3.799335 67.440 52.7617
3.826866 67.596 51.8087
3.854597 67.751 50.8560
3.882529 67.905 49.9038
3.910664 68.059 48.9525
3.939002 68.211 48.0022
3.967546 68.363 47.0528
3.996296 68.513 46.1039
4.025255 68.663 45.1548
4.054423 68.812 44.2049
4.083804 68.959 43.2537
4.113396 69.106 42.3011
4.143204 69.252 41.3473
4.173227 69.396 40.3928
4.203468 69.539 39.4381
4.233928 69.682 38.4840
4.264609 69.823 37.5309
4.295512 69.964 36.5792
4.326639 70.103 35.6290
4.357992 70.242 34.6800
4.389572 70.379 33.7317
4.421380 70.516 32.7836
4.453419 70.652 31.8349
4.485691 70.786 30.8856
4.518196 70.920 29.9358
4.550936 71.053 28.9858
4.583914 71.184 28.0363
4.617131 71.315 27.0880
4.650589 71.444 26.1413
4.684289 71.573 25.1965
4.718233 71.700 24.2536
4.752424 71.827 23.3123
4.786862 71.953 22.3719
4.821549 72.078 21.4319
4.856488 72.202 20.4921
4.891680 72.325 19.5526
4.927127 72.447 18.6136
4.962831 72.568 17.6758
4.998794 72.688 16.7397
5.035017 72.807 15.8058
5.071503 72.925 14.8741
5.108253 73.042 13.9448
5.145270 73.159 13.0171
5.182555 73.275 12.0908
5.220110 73.389 11.1654
5.257937 73.503 10.2410
5.296038 73.616 9.3177
5.334415 73.728 8.3960
5.373071 73.839 7.4764
5.412006 73.950 6.5591
5.451224 74.060 5.6443
5.490725 74.169 4.7318
5.530514 74.277 3.8213
5.570590 74.384 2.9124
5.610957 74.491 2.0049
5.651616 74.597 1.0988
5.692570 74.702 0.1944
5.733821 74.806 -0.7081
5.775370 74.910 -1.6083
5.817221 75.013 -2.5063
5.859375 75.115 -3.4022
5.901834 75.217 -4.2961
5.944602 75.318 -5.1885
5.987679 75.418 -6.0795
6.031068 75.518 -6.9691
6.074771 75.617 -7.8571
6.118792 75.716 -8.7434
6.163131 75.814 -9.6279
6.207792 75.911 -10.5108
6.252776 76.008 -11.3922
6.298086 76.104 -12.2722
6.343725 76.200 -13.1512
6.389694 76.295 -14.0293
6.435996 76.389 -14.9061
6.482634 76.483 -15.7819
6.529610 76.576 -16.6564
6.576926 76.669 -17.5297
6.624585 76.761 -18.4021
6.672590 76.852 -19.2738
6.720942 76.943 -20.1448
6.769645 77.033 -21.0152
6.818700 77.122 -21.8847
6.868111 77.211 -22.7533
6.917881 77.300 -23.6210
6.968010 77.387 -24.4877
7.018504 77.474 -25.3538
7.069362 77.560 -26.2192
7.120590 77.645 -27.0839
7.172189 77.730 -27.9478
7.224161 77.814 -28.8104
7.276511 77.897 -29.6716
7.329239 77.979 -30.5316
7.382350 78.061 -31.3904
7.435845 78.141 -32.2478
7.489729 78.221 -33.1039
7.544002 78.300 -33.9583
7.598669 78.379 -34.8107
7.653732 78.456 -35.6609
7.709194 78.533 -36.5087
7.765058 78.609 -37.3542
7.821327 78.684 -38.1973
7.878004 78.758 -39.0378
7.935091 78.831 -39.8755
7.992592 78.903 -40.7101
8.050510 78.975 -41.5411
8.108847 79.046 -42.3688
8.167607 79.116 -43.1931
8.226793 79.186 -44.0138
8.286408 79.255 -44.8308
8.346454 79.323 -45.6440
8.406936 79.390 -46.4531
8.467856 79.457 -47.2581
8.529218 79.523 -48.0591
8.591024 79.589 -48.8560
8.653278 79.654 -49.6489
8.715983 79.719 -50.4376
8.779143 79.783 -51.2223
8.842760 79.846 -52.0028
8.906839 79.909 -52.7793
8.971381 79.972 -53.5519
9.036392 80.034 -54.3206
9.101873 80.096 -55.0853
9.167829 80.157 -55.8464
9.234263 80.218 -56.6036
9.301178 80.278 -57.3574
9.368578 80.338 -58.1075
9.436467 80.398 -58.8541
9.504847 80.457 -59.5972
9.573723 80.516 -60.3369
9.643099 80.574 -61.0732
9.712976 80.632 -61.8063
9.783361 80.689 -62.5359
9.854255 80.746 -63.2622
9.925663 80.802 -63.9853
9.997588 80.858 -64.7050
10.070035 80.914 -65.4215
10.143007 80.969 -66.1348
10.216507 81.024 -66.8447
10.290540 81.078 -67.5515
10.365109 81.131 -68.2550
10.440219 81.185 -68.9554
10.515873 81.237 -69.6527
10.592076 81.289 -70.3470
10.668830 81.341 -71.0383
10.746141 81.393 -71.7268
10.824012 81.443 -72.4125
10.902447 81.494 -73.0955
10.981451 81.544 -73.7758
11.061027 81.593 -74.4537
11.141180 81.642 -75.1290
11.221913 81.690 -75.8020
11.303232 81.737 -76.4725
11.385140 81.784 -77.1407
11.467641 81.831 -77.8064
11.550741 81.876 -78.4697
11.634442 81.921 -79.1303
11.718750 81.965 -79.7882
11.803669 82.009 -80.4432
11.889203 82.051 -81.0951
11.975357 82.093 -81.7438
12.062136 82.135 -82.3890
12.149543 82.175 -83.0306
12.237583 82.215 -83.6685
12.326262 82.253 -84.3024
12.415583 82.292 -84.9323
12.505552 82.329 -85.5581
12.596172 82.366 -86.1799
12.687449 82.403 -86.7979
12.779387 82.439 -87.4120
12.871992 82.474 -88.0225
12.965268 82.509 -88.6298
13.059220 82.544 -89.2338
13.153852 82.578 -89.8351
13.249170 82.612 -90.4338
13.345179 82.645 -91.0301
13.441884 82.677 -91.6241
13.539289 82.709 -92.2158
13.637401 82.740 -92.8052
13.736223 82.771 -93.3920
13.835761 82.800 -93.9756
13.936021 82.829 -94.5558
14.037007 82.858 -95.1318
14.138725 82.885 -95.7029
14.241180 82.911 -96.2684
14.344377 82.937 -96.8275
14.448323 82.963 -97.3795
14.553021 82.988 -97.9240
14.658478 83.013 -98.4606
14.764700 83.039 -98.9894
14.871691 83.065 -99.5107
14.979457 83.091 -100.0255
15.088005 83.119 -100.5347
15.197339 83.147 -101.0401
15.307465 83.177 -101.5436
15.418389 83.209 -102.0474
15.530117 83.242 -102.5540
15.642655 83.276 -103.0659
15.756008 83.312 -103.5856
15.870182 83.349 -104.1152
15.985184 83.386 -104.6565
16.101019 83.423 -105.2107
16.217694 83.461 -105.7786
16.335214 83.497 -106.3597
16.453586 83.532 -106.9535
16.572815 83.565 -107.5582
16.692909 83.596 -108.1716
16.813872 83.625 -108.7908
16.935713 83.651 -109.4126
17.058436 83.674 -110.0335
17.182048 83.695 -110.6500
17.306556 83.713 -111.2589
17.431967 83.730 -111.8572
17.558286 83.744 -112.4425
17.685521 83.758 -113.0133
17.813677 83.771 -113.5687
17.942762 83.784 -114.1087
18.072783 83.797 -114.6342
18.203746 83.811 -115.1466
18.335658 83.826 -115.6483
18.468526 83.843 -116.1414
18.602356 83.861 -116.6288
18.737156 83.880 -117.1129
18.872934 83.901 -117.5959
19.009695 83.922 -118.0797
19.147447 83.944 -118.5652
19.286197 83.967 -119.0532
19.425953 83.989 -119.5434
19.566721 84.011 -120.0353
19.708510 84.033 -120.5278
19.851326 84.054 -121.0198
19.995177 84.074 -121.5096
20.140070 84.094 -121.9961
20.286013 84.113 -122.4781
20.433014 84.131 -122.9549
20.581080 84.149 -123.4259
20.730219 84.167 -123.8910
20.880439 84.185 -124.3505
21.031747 84.203 -124.8048
21.184152 84.221 -125.2548
21.337661 84.240 -125.7011
21.492282 84.258 -126.1448
21.648024 84.277 -126.5867
21.804895 84.295 -127.0275
21.962902 84.313 -127.4677
22.122054 84.332 -127.9078
22.282360 84.349 -128.3481
22.443827 84.367 -128.7887
22.606464 84.384 -129.2296
22.770280 84.400 -129.6705
22.935283 84.415 -130.1113
23.101481 84.430 -130.5514
23.268884 84.443 -130.9905
23.437500 84.456 -131.4282
23.607338 84.468 -131.8639
23.778406 84.479 -132.2972
23.950714 84.489 -132.7278
24.124271 84.498 -133.1554
24.299086 84.507 -133.5796
24.475167 84.514 -134.0001
24.652524 84.521 -134.4166
24.831166 84.528 -134.8287
25.011103 84.533 -135.2361
25.192344 84.539 -135.6382
25.374898 84.544 -136.0347
25.558775 84.548 -136.4253
25.743984 84.553 -136.8101
25.930536 84.558 -137.1893
26.118439 84.564 -137.5640
26.307704 84.570 -137.9353
26.498341 84.577 -138.3048
26.690359 84.585 -138.6742
26.883768 84.594 -139.0454
27.078579 84.603 -139.4198
27.274801 84.613 -139.7983
27.472446 84.622 -140.1814
27.671522 84.632 -140.5686
27.872042 84.641 -140.9591
28.074014 84.649 -141.3515
28.277450 84.657 -141.7442
28.482360 84.664 -142.1358
28.688755 84.670 -142.5251
28.896645 84.676 -142.9113
29.106042 84.682 -143.2939
29.316957 84.687 -143.6730
29.529400 84.692 -144.0483
29.743382 84.697 -144.4199
29.958915 84.702 -144.7876
30.176009 84.707 -145.1512
30.394677 84.712 -145.5103
30.614929 84.716 -145.8649
30.836778 84.721 -146.2153
31.060234 84.726 -146.5622
31.285309 84.731 -146.9065
31.512015 84.736 -147.2494
31.740364 84.741 -147.5919
31.970368 84.746 -147.9346
32.202039 84.751 -148.2771
32.435388 84.755 -148.6187
32.670428 84.758 -148.9579
32.907171 84.761 -149.2933
33.145630 84.764 -149.6240
33.385817 84.766 -149.9497
33.627745 84.768 -150.2715
33.871425 84.771 -150.5914
34.116871 84.774 -150.9116
34.364096 84.778 -151.2346
34.613113 84.782 -151.5617
34.863934 84.785 -151.8933
35.116572 84.787 -152.2285
35.371041 84.788 -152.5653
35.627354 84.788 -152.9017
35.885525 84.788 -153.2360
36.145566 84.787 -153.5673
36.407492 84.785 -153.8959
36.671316 84.783 -154.2225
36.937051 84.781 -154.5477
37.204712 84.779 -154.8716
37.474313 84.776 -155.1934
37.745867 84.772 -155.5111
38.019389 84.768 -155.8231
38.294893 84.764 -156.1277
38.572394 84.760 -156.4250
38.851905 84.757 -156.7163
39.133442 84.755 -157.0042
39.417019 84.754 -157.2916
39.702651 84.754 -157.5810
39.990353 84.754 -157.8734
40.280140 84.753 -158.1687
40.572026 84.753 -158.4655
40.866028 84.752 -158.7623
41.162160 84.751 -159.0579
41.460438 84.750 -159.3522
41.760877 84.749 -159.6458
42.063494 84.747 -159.9396
42.368303 84.746 -160.2343
42.675322 84.743 -160.5295
42.984565 84.740 -160.8242
43.296048 84.737 -161.1167
43.609789 84.732 -161.4050
43.925804 84.727 -161.6880
44.244108 84.722 -161.9657
44.564719 84.718 -162.2396
44.887654 84.713 -162.5120
45.212928 84.709 -162.7852
45.540560 84.706 -163.0607
45.870565 84.701 -163.3381
46.202962 84.696 -163.6161
46.537768 84.691 -163.8922
46.875000 84.685 -164.1645
47.214676 84.678 -164.4327
47.556813 84.672 -164.6981
47.901429 84.667 -164.9622
48.248542 84.661 -165.2265
48.598171 84.655 -165.4908
48.950334 84.648 -165.7539
49.305048 84.642 -166.0142
49.662333 84.635 -166.2710
50.022206 84.628 -166.5250
50.384688 84.621 -166.7779
50.749796 84.614 -167.0314
51.117550 84.607 -167.2863
51.487969 84.600 -167.5417
51.861072 84.591 -167.7961
52.236879 84.583 -168.0477
52.615409 84.574 -168.2959
52.996681 84.565 -168.5416
53.380717 84.557 -168.7873
53.767536 84.549 -169.0359
54.157158 84.541 -169.2898
54.549603 84.533 -169.5493
54.944892 84.525 -169.8132
55.343045 84.516 -170.0794
55.744084 84.507 -170.3469
56.148028 84.497 -170.6160
56.554900 84.486 -170.8868
56.964720 84.474 -171.1574
57.377510 84.461 -171.4217
57.793291 84.446 -171.6719
58.212085 84.431 -171.9023
58.633914 84.417 -172.1133
59.058799 84.406 -172.3109
59.486764 84.397 -172.5042
59.917829 84.391 -172.7006
60.352019 84.385 -172.9044
60.789354 84.380 -173.1167
61.229859 84.375 -173.3375
61.673556 84.368 -173.5654
62.120468 84.360 -173.7968
62.570618 84.349 -174.0259
63.024031 84.336 -174.2469
63.480729 84.323 -174.4570
63.940736 84.310 -174.6587
64.404077 84.299 -174.8585
64.870776 84.288 -175.0637
65.340856 84.277 -175.2789
65.814343 84.265 -175.5046
66.291261 84.252 -175.7371
66.771635 84.237 -175.9704
67.255489 84.221 -176.1981
67.742850 84.203 -176.4150
68.233743 84.185 -176.6187
68.728193 84.168 -176.8099
69.226226 84.152 -176.9915
69.727867 84.138 -177.1683
70.233144 84.126 -177.3464
70.742083 84.115 -177.5314
71.254709 84.105 -177.7275
71.771050 84.094 -177.9357
72.291132 84.082 -178.1533
72.814984 84.067 -178.3746
73.342631 84.049 -178.5924
73.874102 84.030 -178.8004
74.409424 84.010 -178.9947
74.948626 83.990 -179.1749
75.491734 83.971 -179.3444
76.038779 83.954 -179.5097
76.589787 83.939 -179.6790
77.144788 83.925 -179.8591
77.703811 83.911 179.9469
78.266885 83.896 179.7411
78.834039 83.879 179.5298
79.405303 83.861 179.3198
79.980706 83.841 179.1159
80.560280 83.820 178.9188
81.144053 83.798 178.7264
81.732056 83.777 178.5358
82.324320 83.755 178.3457
82.920876 83.732 178.1562
83.521755 83.709 177.9685
84.126988 83.685 177.7844
84.736607 83.660 177.6060
85.350643 83.636 177.4347
85.969129 83.611 177.2708
86.592097 83.588 177.1129
87.219579 83.565 176.9597
87.851608 83.542 176.8097
88.488217 83.521 176.6606
89.129439 83.499 176.5095
89.775308 83.478 176.3552
