* Measurement data measured by REW V5.31.3
* Source: Headset (2- CX31993 HIFI AUDIO), MICROPHONE (Master Volume), R, volume: 0.300
* Format: 256k Log Swept Sine, 1 sweep at -11.9 dBFS with no timing reference
* Dated: 09 24, 25 1:46:44 PM
* REW Settings:
*  C-weighting compensation: Off
*  Target level: 75.0 dB
* Note: ; 
* Measurement: Moondrop Lan2 Pop L
* Smoothing: 1/12 octave
* Frequency Step: 96 ppo
* Start Frequency: 0.36621094 Hz
*
* Freq(Hz) SPL(dB) Phase(degrees)
0.366211 31.673 -60.7989
0.368865 31.688 -60.8839
0.371538 31.711 -61.0104
0.374230 31.740 -61.1673
0.376942 31.772 -61.3455
0.379673 31.806 -61.5381
0.382424 31.842 -61.7407
0.385196 31.878 -61.9504
0.387987 31.915 -62.1656
0.390798 31.953 -62.3854
0.393630 31.991 -62.6094
0.396483 32.030 -62.8372
0.399356 32.068 -63.0687
0.402250 32.108 -63.3038
0.405165 32.147 -63.5425
0.408101 32.186 -63.7846
0.411058 32.226 -64.0303
0.414037 32.266 -64.2793
0.417037 32.307 -64.5318
0.420059 32.348 -64.7877
0.423103 32.389 -65.0469
0.426169 32.430 -65.3095
0.429257 32.472 -65.5753
0.432368 32.514 -65.8444
0.435501 32.556 -66.1167
0.438656 32.599 -66.3923
0.441835 32.641 -66.6709
0.445037 32.685 -66.9528
0.448262 32.728 -67.2377
0.451510 32.772 -67.5256
0.454782 32.816 -67.8166
0.458077 32.861 -68.1106
0.461397 32.905 -68.4076
0.464740 32.950 -68.7075
0.468108 32.996 -69.0103
0.471500 33.042 -69.3160
0.474917 33.088 -69.6246
0.478358 33.134 -69.9359
0.481825 33.181 -70.2501
0.485316 33.228 -70.5671
0.488833 33.275 -70.8868
0.492375 33.323 -71.2092
0.495943 33.371 -71.5344
0.499537 33.420 -71.8623
0.503157 33.469 -72.1928
0.506803 33.518 -72.5261
0.510475 33.567 -72.8620
0.514175 33.617 -73.2006
0.517900 33.668 -73.5419
0.521653 33.718 -73.8858
0.525434 33.769 -74.2325
0.529241 33.821 -74.5818
0.533076 33.872 -74.9338
0.536939 33.924 -75.2885
0.540830 33.977 -75.6460
0.544749 34.030 -76.0062
0.548696 34.083 -76.3693
0.552673 34.137 -76.7352
0.556677 34.191 -77.1039
0.560711 34.245 -77.4755
0.564774 34.300 -77.8501
0.568867 34.355 -78.2277
0.572989 34.411 -78.6084
0.577141 34.467 -78.9921
0.581324 34.523 -79.3791
0.585536 34.580 -79.7694
0.589779 34.637 -80.1630
0.594053 34.695 -80.5601
0.598358 34.753 -80.9606
0.602694 34.812 -81.3649
0.607061 34.870 -81.7728
0.611460 34.930 -82.1846
0.615891 34.990 -82.6004
0.620354 35.050 -83.0202
0.624849 35.110 -83.4443
0.629377 35.172 -83.8728
0.633938 35.233 -84.3057
0.638532 35.295 -84.7434
0.643159 35.358 -85.1859
0.647819 35.420 -85.6333
0.652514 35.484 -86.0860
0.657242 35.548 -86.5441
0.662005 35.612 -87.0078
0.666802 35.677 -87.4772
0.671634 35.742 -87.9527
0.676501 35.807 -88.4344
0.681403 35.874 -88.9226
0.686341 35.940 -89.4176
0.691314 36.007 -89.9195
0.696324 36.075 -90.4286
0.701370 36.143 -90.9452
0.706452 36.211 -91.4695
0.711571 36.280 -92.0017
0.716728 36.349 -92.5417
0.721921 36.419 -93.0896
0.727153 36.489 -93.6451
0.732422 36.558 -94.2075
0.737729 36.628 -94.7760
0.743075 36.698 -95.3499
0.748460 36.768 -95.9281
0.753883 36.838 -96.5101
0.759346 36.908 -97.0951
0.764849 36.978 -97.6829
0.770391 37.049 -98.2731
0.775974 37.120 -98.8654
0.781597 37.191 -99.4595
0.787261 37.263 -100.0554
0.792966 37.335 -100.6528
0.798712 37.407 -101.2517
0.804500 37.480 -101.8519
0.810329 37.553 -102.4534
0.816201 37.626 -103.0561
0.822116 37.700 -103.6601
0.828073 37.774 -104.2652
0.834074 37.849 -104.8715
0.840118 37.924 -105.4791
0.846206 37.999 -106.0881
0.852338 38.075 -106.6984
0.858514 38.152 -107.3102
0.864735 38.229 -107.9236
0.871001 38.306 -108.5389
0.877313 38.384 -109.1561
0.883670 38.462 -109.7754
0.890074 38.541 -110.3971
0.896524 38.620 -111.0214
0.903020 38.700 -111.6485
0.909564 38.780 -112.2788
0.916155 38.861 -112.9125
0.922794 38.943 -113.5500
0.929481 39.025 -114.1915
0.936216 39.108 -114.8375
0.943000 39.191 -115.4884
0.949834 39.275 -116.1444
0.956717 39.360 -116.8062
0.963649 39.445 -117.4740
0.970632 39.531 -118.1484
0.977666 39.618 -118.8298
0.984750 39.706 -119.5187
0.991886 39.794 -120.2158
0.999074 39.883 -120.9214
1.006314 39.974 -121.6362
1.013606 40.064 -122.3608
1.020951 40.156 -123.0957
1.028349 40.249 -123.8417
1.035801 40.343 -124.5992
1.043307 40.437 -125.3689
1.050867 40.533 -126.1514
1.058482 40.629 -126.9474
1.066152 40.727 -127.7572
1.073878 40.826 -128.5813
1.081660 40.925 -129.4194
1.089498 41.026 -130.2714
1.097393 41.128 -131.1362
1.105345 41.231 -132.0126
1.113355 41.335 -132.8988
1.121423 41.440 -133.7933
1.129549 41.545 -134.6946
1.137734 41.652 -135.6015
1.145979 41.760 -136.5132
1.154283 41.869 -137.4289
1.162647 41.979 -138.3480
1.171072 42.089 -139.2701
1.179558 42.201 -140.1947
1.188106 42.314 -141.1217
1.196715 42.427 -142.0506
1.205387 42.542 -142.9813
1.214122 42.658 -143.9137
1.222920 42.775 -144.8477
1.231782 42.893 -145.7831
1.240708 43.011 -146.7200
1.249699 43.131 -147.6585
1.258754 43.252 -148.5986
1.267876 43.374 -149.5405
1.277063 43.497 -150.4843
1.286318 43.622 -151.4301
1.295639 43.747 -152.3784
1.305027 43.873 -153.3293
1.314484 44.001 -154.2832
1.324009 44.129 -155.2404
1.333604 44.259 -156.2013
1.343268 44.390 -157.1662
1.353002 44.522 -158.1358
1.362806 44.655 -159.1103
1.372681 44.789 -160.0902
1.382628 44.925 -161.0761
1.392647 45.061 -162.0683
1.402739 45.199 -163.0673
1.412904 45.338 -164.0735
1.423142 45.478 -165.0868
1.433455 45.620 -166.1073
1.443843 45.763 -167.1343
1.454305 45.907 -168.1667
1.464844 46.052 -169.2025
1.475459 46.199 -170.2394
1.486150 46.348 -171.2749
1.496920 46.498 -172.3069
1.507767 46.649 -173.3339
1.518693 46.803 -174.3548
1.529698 46.958 -175.3694
1.540783 47.114 -176.3774
1.551948 47.272 -177.3790
1.563194 47.432 -178.3748
1.574521 47.593 -179.3651
1.585931 47.755 179.6494
1.597423 47.919 178.6679
1.608999 48.085 177.6898
1.620658 48.251 176.7141
1.632402 48.419 175.7401
1.644232 48.588 174.7666
1.656146 48.759 173.7929
1.668147 48.930 172.8180
1.680235 49.103 171.8408
1.692411 49.276 170.8603
1.704675 49.451 169.8756
1.717028 49.626 168.8856
1.729470 49.803 167.8892
1.742003 49.979 166.8857
1.754626 50.157 165.8741
1.767341 50.335 164.8536
1.780147 50.514 163.8239
1.793047 50.694 162.7847
1.806040 50.873 161.7366
1.819128 51.054 160.6809
1.832310 51.235 159.6196
1.845587 51.417 158.5553
1.858961 51.600 157.4910
1.872432 51.784 156.4291
1.886001 51.969 155.3714
1.899667 52.154 154.3192
1.913433 52.341 153.2730
1.927299 52.529 152.2333
1.941265 52.718 151.2000
1.955332 52.907 150.1728
1.969501 53.098 149.1514
1.983773 53.289 148.1353
1.998148 53.481 147.1237
2.012627 53.673 146.1161
2.027212 53.867 145.1115
2.041902 54.060 144.1092
2.056698 54.255 143.1082
2.071602 54.449 142.1075
2.086614 54.644 141.1063
2.101734 54.840 140.1035
2.116964 55.035 139.0984
2.132304 55.231 138.0901
2.147756 55.427 137.0782
2.163320 55.623 136.0626
2.178996 55.819 135.0436
2.194786 56.015 134.0224
2.210690 56.211 133.0005
2.226710 56.407 131.9800
2.242845 56.604 130.9625
2.259098 56.800 129.9493
2.275468 56.997 128.9413
2.291957 57.194 127.9388
2.308566 57.391 126.9420
2.325295 57.588 125.9504
2.342145 57.785 124.9640
2.359117 57.983 123.9818
2.376212 58.180 123.0035
2.393431 58.378 122.0281
2.410775 58.575 121.0549
2.428244 58.773 120.0830
2.445840 58.971 119.1115
2.463564 59.168 118.1394
2.481416 59.365 117.1660
2.499397 59.563 116.1904
2.517509 59.760 115.2122
2.535752 59.957 114.2314
2.554127 60.154 113.2480
2.572635 60.350 112.2632
2.591277 60.547 111.2780
2.610055 60.743 110.2937
2.628968 60.939 109.3113
2.648019 61.134 108.3317
2.667208 61.329 107.3552
2.686535 61.524 106.3819
2.706003 61.718 105.4118
2.725612 61.912 104.4446
2.745363 62.106 103.4800
2.765257 62.299 102.5173
2.785295 62.492 101.5561
2.805478 62.685 100.5956
2.825808 62.877 99.6350
2.846285 63.070 98.6738
2.866910 63.261 97.7113
2.887685 63.453 96.7470
2.908611 63.644 95.7807
2.929688 63.835 94.8125
2.950917 64.025 93.8430
2.972301 64.215 92.8728
2.993839 64.404 91.9027
3.015534 64.593 90.9335
3.037386 64.781 89.9655
3.059396 64.968 88.9990
3.081565 65.155 88.0342
3.103896 65.341 87.0710
3.126388 65.527 86.1093
3.149043 65.712 85.1487
3.171862 65.897 84.1889
3.194847 66.081 83.2292
3.217998 66.265 82.2693
3.241317 66.448 81.3085
3.264805 66.631 80.3464
3.288463 66.813 79.3829
3.312293 66.995 78.4178
3.336295 67.176 77.4514
3.360471 67.356 76.4840
3.384822 67.535 75.5163
3.409350 67.714 74.5486
3.434056 67.892 73.5812
3.458940 68.069 72.6146
3.484005 68.246 71.6488
3.509252 68.421 70.6838
3.534681 68.597 69.7194
3.560295 68.771 68.7555
3.586094 68.945 67.7916
3.612081 69.118 66.8273
3.638255 69.291 65.8622
3.664620 69.463 64.8959
3.691175 69.634 63.9281
3.717923 69.805 62.9590
3.744864 69.974 61.9886
3.772001 70.143 61.0176
3.799335 70.311 60.0461
3.826866 70.478 59.0747
3.854597 70.644 58.1037
3.882529 70.810 57.1333
3.910664 70.974 56.1635
3.939002 71.138 55.1942
3.967546 71.301 54.2251
3.996296 71.464 53.2559
4.025255 71.625 52.2859
4.054423 71.786 51.3148
4.083804 71.946 50.3424
4.113396 72.105 49.3687
4.143204 72.263 48.3939
4.173227 72.420 47.4185
4.203468 72.576 46.4430
4.233928 72.732 45.4678
4.264609 72.886 44.4933
4.295512 73.039 43.5196
4.326639 73.192 42.5466
4.357992 73.344 41.5740
4.389572 73.495 40.6013
4.421380 73.645 39.6279
4.453419 73.794 38.6535
4.485691 73.942 37.6780
4.518196 74.089 36.7017
4.550936 74.235 35.7249
4.583914 74.380 34.7483
4.617131 74.524 33.7724
4.650589 74.667 32.7976
4.684289 74.809 31.8240
4.718233 74.950 30.8514
4.752424 75.090 29.8795
4.786862 75.229 28.9077
4.821549 75.367 27.9354
4.856488 75.504 26.9626
4.891680 75.640 25.9895
4.927127 75.775 25.0166
4.962831 75.909 24.0443
4.998794 76.042 23.0734
5.035017 76.174 22.1041
5.071503 76.304 21.1367
5.108253 76.434 20.1709
5.145270 76.563 19.2062
5.182555 76.691 18.2421
5.220110 76.817 17.2783
5.257937 76.943 16.3149
5.296038 77.067 15.3525
5.334415 77.190 14.3914
5.373071 77.313 13.4324
5.412006 77.434 12.4757
5.451224 77.554 11.5215
5.490725 77.673 10.5697
5.530514 77.792 9.6198
5.570590 77.909 8.6714
5.610957 78.025 7.7242
5.651616 78.140 6.7788
5.692570 78.254 5.8353
5.733821 78.367 4.8943
5.775370 78.479 3.9563
5.817221 78.590 3.0215
5.859375 78.700 2.0897
5.901834 78.810 1.1605
5.944602 78.918 0.2338
5.987679 79.025 -0.6907
6.031068 79.131 -1.6128
6.074771 79.237 -2.5321
6.118792 79.341 -3.4484
6.163131 79.445 -4.3611
6.207792 79.548 -5.2705
6.252776 79.650 -6.1766
6.298086 79.751 -7.0798
6.343725 79.852 -7.9802
6.389694 79.951 -8.8779
6.435996 80.050 -9.7726
6.482634 80.148 -10.6643
6.529610 80.246 -11.5526
6.576926 80.343 -12.4377
6.624585 80.439 -13.3198
6.672590 80.534 -14.1989
6.720942 80.629 -15.0754
6.769645 80.723 -15.9492
6.818700 80.816 -16.8203
6.868111 80.909 -17.6887
6.917881 81.001 -18.5543
6.968010 81.092 -19.4172
7.018504 81.183 -20.2776
7.069362 81.273 -21.1358
7.120590 81.363 -21.9918
7.172189 81.452 -22.8456
7.224161 81.541 -23.6971
7.276511 81.628 -24.5465
7.329239 81.716 -25.3938
7.382350 81.802 -26.2391
7.435845 81.888 -27.0827
7.489729 81.974 -27.9245
7.544002 82.059 -28.7645
7.598669 82.143 -29.6027
7.653732 82.226 -30.4391
7.709194 82.309 -31.2737
7.765058 82.391 -32.1066
7.821327 82.473 -32.9379
7.878004 82.554 -33.7675
7.935091 82.634 -34.5953
7.992592 82.713 -35.4213
8.050510 82.792 -36.2452
8.108847 82.870 -37.0674
8.167607 82.948 -37.8876
8.226793 83.024 -38.7059
8.286408 83.100 -39.5221
8.346454 83.175 -40.3361
8.406936 83.250 -41.1477
8.467856 83.324 -41.9569
8.529218 83.397 -42.7638
8.591024 83.469 -43.5684
8.653278 83.541 -44.3704
8.715983 83.612 -45.1698
8.779143 83.683 -45.9665
8.842760 83.752 -46.7605
8.906839 83.822 -47.5519
8.971381 83.890 -48.3406
9.036392 83.958 -49.1266
9.101873 84.026 -49.9100
9.167829 84.093 -50.6907
9.234263 84.159 -51.4688
9.301178 84.225 -52.2445
9.368578 84.290 -53.0177
9.436467 84.355 -53.7886
9.504847 84.419 -54.5573
9.573723 84.483 -55.3239
9.643099 84.546 -56.0883
9.712976 84.609 -56.8510
9.783361 84.671 -57.6117
9.854255 84.733 -58.3707
9.925663 84.794 -59.1281
9.997588 84.854 -59.8839
10.070035 84.914 -60.6381
10.143007 84.974 -61.3908
10.216507 85.032 -62.1420
10.290540 85.091 -62.8915
10.365109 85.148 -63.6394
10.440219 85.205 -64.3856
10.515873 85.260 -65.1298
10.592076 85.316 -65.8720
10.668830 85.370 -66.6119
10.746141 85.424 -67.3494
10.824012 85.476 -68.0841
10.902447 85.528 -68.8159
10.981451 85.580 -69.5444
11.061027 85.630 -70.2693
11.141180 85.680 -70.9904
11.221913 85.729 -71.7075
11.303232 85.777 -72.4202
11.385140 85.824 -73.1283
11.467641 85.871 -73.8318
11.550741 85.918 -74.5303
11.634442 85.964 -75.2240
11.718750 86.009 -75.9127
11.803669 86.054 -76.5966
11.889203 86.099 -77.2755
11.975357 86.143 -77.9499
12.062136 86.188 -78.6199
12.149543 86.232 -79.2859
12.237583 86.276 -79.9481
12.326262 86.320 -80.6071
12.415583 86.364 -81.2631
12.505552 86.408 -81.9169
12.596172 86.452 -82.5687
12.687449 86.496 -83.2192
12.779387 86.540 -83.8687
12.871992 86.584 -84.5177
12.965268 86.628 -85.1666
13.059220 86.671 -85.8155
13.153852 86.714 -86.4647
13.249170 86.756 -87.1145
13.345179 86.798 -87.7646
13.441884 86.840 -88.4152
13.539289 86.880 -89.0659
13.637401 86.920 -89.7166
13.736223 86.960 -90.3667
13.835761 86.998 -91.0159
13.936021 87.035 -91.6637
14.037007 87.072 -92.3094
14.138725 87.108 -92.9528
14.241180 87.142 -93.5929
14.344377 87.176 -94.2295
14.448323 87.210 -94.8621
14.553021 87.242 -95.4902
14.658478 87.274 -96.1138
14.764700 87.306 -96.7325
14.871691 87.336 -97.3464
14.979457 87.367 -97.9557
15.088005 87.398 -98.5605
15.197339 87.428 -99.1611
15.307465 87.458 -99.7582
15.418389 87.488 -100.3521
15.530117 87.518 -100.9434
15.642655 87.548 -101.5325
15.756008 87.577 -102.1201
15.870182 87.607 -102.7065
15.985184 87.636 -103.2921
16.101019 87.665 -103.8771
16.217694 87.694 -104.4614
16.335214 87.722 -105.0452
16.453586 87.750 -105.6280
16.572815 87.777 -106.2095
16.692909 87.803 -106.7891
16.813872 87.829 -107.3662
16.935713 87.854 -107.9404
17.058436 87.878 -108.5108
17.182048 87.902 -109.0770
17.306556 87.925 -109.6384
17.431967 87.948 -110.1949
17.558286 87.971 -110.7463
17.685521 87.994 -111.2926
17.813677 88.016 -111.8342
17.942762 88.039 -112.3715
18.072783 88.062 -112.9052
18.203746 88.085 -113.4362
18.335658 88.109 -113.9653
18.468526 88.132 -114.4933
18.602356 88.156 -115.0211
18.737156 88.180 -115.5493
18.872934 88.204 -116.0785
19.009695 88.228 -116.6088
19.147447 88.251 -117.1403
19.286197 88.274 -117.6725
19.425953 88.296 -118.2051
19.566721 88.317 -118.7373
19.708510 88.338 -119.2681
19.851326 88.358 -119.7967
19.995177 88.376 -120.3220
20.140070 88.395 -120.8432
20.286013 88.412 -121.3596
20.433014 88.429 -121.8708
20.581080 88.446 -122.3766
20.730219 88.462 -122.8771
20.880439 88.479 -123.3726
21.031747 88.495 -123.8637
21.184152 88.511 -124.3511
21.337661 88.527 -124.8354
21.492282 88.543 -125.3175
21.648024 88.560 -125.7977
21.804895 88.575 -126.2765
21.962902 88.591 -126.7539
22.122054 88.606 -127.2296
22.282360 88.621 -127.7033
22.443827 88.635 -128.1743
22.606464 88.648 -128.6420
22.770280 88.661 -129.1056
22.935283 88.674 -129.5647
23.101481 88.686 -130.0190
23.268884 88.698 -130.4686
23.437500 88.710 -130.9140
23.607338 88.723 -131.3560
23.778406 88.736 -131.7955
23.950714 88.749 -132.2339
24.124271 88.762 -132.6725
24.299086 88.775 -133.1125
24.475167 88.789 -133.5547
24.652524 88.802 -133.9997
24.831166 88.815 -134.4475
25.011103 88.827 -134.8979
25.192344 88.838 -135.3500
25.374898 88.849 -135.8027
25.558775 88.858 -136.2549
25.743984 88.867 -136.7054
25.930536 88.875 -137.1534
26.118439 88.883 -137.5980
26.307704 88.890 -138.0392
26.498341 88.897 -138.4768
26.690359 88.903 -138.9114
26.883768 88.910 -139.3435
27.078579 88.916 -139.7739
27.274801 88.923 -140.2030
27.472446 88.929 -140.6314
27.671522 88.935 -141.0591
27.872042 88.941 -141.4861
28.074014 88.947 -141.9119
28.277450 88.952 -142.3359
28.482360 88.957 -142.7579
28.688755 88.962 -143.1772
28.896645 88.967 -143.5934
29.106042 88.971 -144.0063
29.316957 88.976 -144.4161
29.529400 88.980 -144.8226
29.743382 88.984 -145.2262
29.958915 88.989 -145.6268
30.176009 88.993 -146.0247
30.394677 88.998 -146.4198
30.614929 89.002 -146.8123
30.836778 89.007 -147.2021
31.060234 89.011 -147.5896
31.285309 89.016 -147.9751
31.512015 89.021 -148.3593
31.740364 89.027 -148.7429
31.970368 89.032 -149.1268
32.202039 89.037 -149.5118
32.435388 89.042 -149.8984
32.670428 89.046 -150.2868
32.907171 89.050 -150.6763
33.145630 89.053 -151.0659
33.385817 89.055 -151.4538
33.627745 89.056 -151.8381
33.871425 89.055 -152.2169
34.116871 89.055 -152.5888
34.364096 89.054 -152.9532
34.613113 89.053 -153.3108
34.863934 89.053 -153.6628
35.116572 89.053 -154.0116
35.371041 89.054 -154.3597
35.627354 89.056 -154.7093
35.885525 89.059 -155.0622
36.145566 89.061 -155.4191
36.407492 89.063 -155.7799
36.671316 89.065 -156.1442
36.937051 89.066 -156.5110
37.204712 89.067 -156.8795
37.474313 89.068 -157.2493
37.745867 89.067 -157.6199
38.019389 89.066 -157.9905
38.294893 89.064 -158.3603
38.572394 89.061 -158.7275
38.851905 89.057 -159.0905
39.133442 89.052 -159.4471
39.417019 89.047 -159.7958
39.702651 89.042 -160.1360
39.990353 89.036 -160.4683
40.280140 89.032 -160.7941
40.572026 89.028 -161.1158
40.866028 89.025 -161.4358
41.162160 89.022 -161.7563
41.460438 89.019 -162.0787
41.760877 89.017 -162.4037
42.063494 89.014 -162.7314
42.368303 89.011 -163.0611
42.675322 89.007 -163.3922
42.984565 89.003 -163.7241
43.296048 88.998 -164.0562
43.609789 88.992 -164.3878
43.925804 88.985 -164.7180
44.244108 88.978 -165.0453
44.564719 88.970 -165.3679
44.887654 88.961 -165.6843
45.212928 88.953 -165.9938
45.540560 88.944 -166.2974
45.870565 88.937 -166.5977
46.202962 88.931 -166.8987
46.537768 88.925 -167.2037
46.875000 88.920 -167.5146
47.214676 88.914 -167.8309
47.556813 88.907 -168.1499
47.901429 88.899 -168.4681
48.248542 88.891 -168.7830
48.598171 88.882 -169.0936
48.950334 88.873 -169.4011
49.305048 88.864 -169.7072
49.662333 88.855 -170.0126
50.022206 88.845 -170.3170
50.384688 88.836 -170.6193
50.749796 88.826 -170.9192
51.117550 88.816 -171.2175
51.487969 88.806 -171.5162
51.861072 88.797 -171.8173
52.236879 88.787 -172.1207
52.615409 88.777 -172.4248
52.996681 88.766 -172.7269
53.380717 88.755 -173.0256
53.767536 88.745 -173.3218
54.157158 88.735 -173.6179
54.549603 88.726 -173.9158
54.944892 88.716 -174.2153
55.343045 88.707 -174.5143
55.744084 88.697 -174.8107
56.148028 88.687 -175.1048
56.554900 88.678 -175.3995
56.964720 88.669 -175.6982
57.377510 88.658 -176.0010
57.793291 88.646 -176.3031
58.212085 88.631 -176.5973
58.633914 88.615 -176.8773
59.058799 88.599 -177.1420
59.486764 88.584 -177.3961
59.917829 88.570 -177.6461
60.352019 88.556 -177.8976
60.789354 88.542 -178.1521
61.229859 88.527 -178.4088
61.673556 88.512 -178.6669
62.120468 88.497 -178.9266
62.570618 88.482 -179.1892
63.024031 88.467 -179.4551
63.480729 88.451 -179.7235
63.940736 88.435 -179.9927
64.404077 88.418 179.7384
64.870776 88.402 179.4702
65.340856 88.386 179.2026
65.814343 88.370 178.9362
66.291261 88.354 178.6709
66.771635 88.338 178.4064
67.255489 88.322 178.1417
67.742850 88.306 177.8772
68.233743 88.289 177.6149
68.728193 88.271 177.3583
69.226226 88.252 177.1109
69.727867 88.234 176.8734
70.233144 88.215 176.6439
70.742083 88.198 176.4178
71.254709 88.181 176.1904
71.771050 88.164 175.9578
72.291132 88.147 175.7196
72.814984 88.128 175.4791
73.342631 88.108 175.2416
73.874102 88.087 175.0099
74.409424 88.066 174.7827
74.948626 88.046 174.5557
75.491734 88.026 174.3243
76.038779 88.005 174.0873
76.589787 87.983 173.8463
77.144788 87.960 173.6052
77.703811 87.935 173.3683
78.266885 87.910 173.1390
78.834039 87.886 172.9182
79.405303 87.862 172.7030
79.980706 87.839 172.4891
80.560280 87.817 172.2725
81.144053 87.796 172.0521
81.732056 87.774 171.8276
82.324320 87.753 171.5989
82.920876 87.730 171.3661
83.521755 87.706 171.1317
84.126988 87.680 170.9006
84.736607 87.652 170.6783
85.350643 87.623 170.4681
85.969129 87.594 170.2690
86.592097 87.566 170.0769
87.219579 87.538 169.8870
87.851608 87.512 169.6953
88.488217 87.487 169.4985
89.129439 87.464 169.2925
