* Measurement data measured by REW V5.31.3
* Source: Input device not selected, no input selected, R, volume: no control
* Format: 256k Log Swept Sine, 1 sweep at -12.0 dBFS with no timing reference
* Dated: Feb 6, 2026 4:37:06 PM
* REW Settings:
*  C-weighting compensation: Off
*  Target level: 75.0 dB
* Note: ; 
* Measurement: Roseselsa Ceramics Mk2 L
* Smoothing: 1/24 octave
* Frequency Step: 96 ppo
* Start Frequency: 0.36621094 Hz
*
* Freq(Hz) SPL(dB) Phase(degrees)
0.366211 54.593 87.1841
0.368865 54.633 86.9643
0.371538 54.691 86.6469
0.374230 54.756 86.2877
0.376942 54.824 85.9115
0.379673 54.894 85.5274
0.382424 54.964 85.1384
0.385196 55.034 84.7455
0.387987 55.105 84.3489
0.390798 55.177 83.9488
0.393630 55.249 83.5454
0.396483 55.322 83.1388
0.399356 55.395 82.7290
0.402250 55.469 82.3162
0.405165 55.543 81.9005
0.408101 55.618 81.4820
0.411058 55.694 81.0608
0.414037 55.770 80.6370
0.417037 55.846 80.2108
0.420059 55.923 79.7822
0.423103 56.001 79.3514
0.426169 56.079 78.9185
0.429257 56.157 78.4837
0.432368 56.237 78.0469
0.435501 56.317 77.6084
0.438656 56.397 77.1682
0.441835 56.478 76.7265
0.445037 56.560 76.2834
0.448262 56.642 75.8390
0.451510 56.725 75.3933
0.454782 56.808 74.9466
0.458077 56.892 74.4988
0.461397 56.977 74.0501
0.464740 57.062 73.6007
0.468108 57.148 73.1505
0.471500 57.234 72.6997
0.474917 57.321 72.2484
0.478358 57.409 71.7966
0.481825 57.498 71.3444
0.485316 57.587 70.8920
0.488833 57.676 70.4393
0.492375 57.766 69.9865
0.495943 57.857 69.5337
0.499537 57.949 69.0808
0.503157 58.041 68.6279
0.506803 58.134 68.1751
0.510475 58.228 67.7225
0.514175 58.322 67.2701
0.517900 58.417 66.8178
0.521653 58.513 66.3659
0.525434 58.609 65.9142
0.529241 58.706 65.4629
0.533076 58.804 65.0119
0.536939 58.903 64.5613
0.540830 59.002 64.1111
0.544749 59.102 63.6612
0.548696 59.202 63.2118
0.552673 59.304 62.7628
0.556677 59.406 62.3142
0.560711 59.509 61.8660
0.564774 59.612 61.4182
0.568867 59.716 60.9708
0.572989 59.822 60.5237
0.577141 59.927 60.0770
0.581324 60.034 59.6307
0.585536 60.141 59.1846
0.589779 60.250 58.7388
0.594053 60.359 58.2933
0.598358 60.468 57.8480
0.602694 60.579 57.4028
0.607061 60.690 56.9578
0.611460 60.802 56.5129
0.615891 60.915 56.0681
0.620354 61.029 55.6232
0.624849 61.144 55.1783
0.629377 61.259 54.7332
0.633938 61.375 54.2881
0.638532 61.492 53.8427
0.643159 61.610 53.3970
0.647819 61.729 52.9510
0.652514 61.849 52.5046
0.657242 61.969 52.0578
0.662005 62.091 51.6104
0.666802 62.213 51.1625
0.671634 62.336 50.7139
0.676501 62.460 50.2646
0.681403 62.585 49.8144
0.686341 62.711 49.3635
0.691314 62.838 48.9115
0.696324 62.966 48.4586
0.701370 63.095 48.0046
0.706452 63.224 47.5495
0.711571 63.355 47.0932
0.716728 63.486 46.6356
0.721921 63.618 46.1769
0.727153 63.749 45.7176
0.732422 63.878 45.2586
0.737729 64.004 44.8021
0.743075 64.128 44.3501
0.748460 64.251 43.9037
0.753883 64.375 43.4632
0.759346 64.499 43.0287
0.764849 64.623 42.6001
0.770391 64.748 42.1772
0.775974 64.873 41.7600
0.781597 64.999 41.3482
0.787261 65.125 40.9418
0.792966 65.252 40.5404
0.798712 65.379 40.1441
0.804500 65.507 39.7524
0.810329 65.635 39.3654
0.816201 65.763 38.9827
0.822116 65.892 38.6042
0.828073 66.022 38.2298
0.834074 66.152 37.8590
0.840118 66.282 37.4919
0.846206 66.413 37.1281
0.852338 66.544 36.7675
0.858514 66.676 36.4098
0.864735 66.808 36.0549
0.871001 66.941 35.7025
0.877313 67.074 35.3523
0.883670 67.207 35.0043
0.890074 67.341 34.6582
0.896524 67.475 34.3137
0.903020 67.610 33.9707
0.909564 67.744 33.6289
0.916155 67.880 33.2882
0.922794 68.015 32.9482
0.929481 68.151 32.6089
0.936216 68.288 32.2700
0.943000 68.424 31.9313
0.949834 68.562 31.5925
0.956717 68.699 31.2535
0.963649 68.837 30.9141
0.970632 68.975 30.5741
0.977666 69.113 30.2332
0.984750 69.251 29.8913
0.991886 69.390 29.5482
0.999074 69.529 29.2036
1.006314 69.669 28.8573
1.013606 69.808 28.5093
1.020951 69.948 28.1592
1.028349 70.088 27.8068
1.035801 70.228 27.4521
1.043307 70.369 27.0947
1.050867 70.510 26.7346
1.058482 70.650 26.3715
1.066152 70.791 26.0051
1.073878 70.933 25.6355
1.081660 71.074 25.2625
1.089498 71.215 24.8864
1.097393 71.356 24.5078
1.105345 71.498 24.1284
1.113355 71.639 23.7500
1.121423 71.780 23.3737
1.129549 71.921 22.9997
1.137734 72.062 22.6281
1.145979 72.202 22.2590
1.154283 72.343 21.8920
1.162647 72.483 21.5272
1.171072 72.623 21.1643
1.179558 72.763 20.8033
1.188106 72.903 20.4439
1.196715 73.043 20.0860
1.205387 73.182 19.7295
1.214122 73.322 19.3742
1.222920 73.461 19.0200
1.231782 73.600 18.6666
1.240708 73.739 18.3140
1.249699 73.879 17.9619
1.258754 74.018 17.6102
1.267876 74.156 17.2588
1.277063 74.295 16.9074
1.286318 74.434 16.5558
1.295639 74.573 16.2040
1.305027 74.712 15.8517
1.314484 74.851 15.4987
1.324009 74.990 15.1450
1.333604 75.129 14.7902
1.343268 75.268 14.4343
1.353002 75.407 14.0770
1.362806 75.547 13.7182
1.372681 75.686 13.3577
1.382628 75.826 12.9953
1.392647 75.966 12.6309
1.402739 76.106 12.2641
1.412904 76.247 11.8950
1.423142 76.387 11.5232
1.433455 76.529 11.1487
1.443843 76.670 10.7715
1.454305 76.812 10.3917
1.464844 76.954 10.0101
1.475459 77.096 9.6284
1.486150 77.238 9.2481
1.496920 77.380 8.8700
1.507767 77.521 8.4940
1.518693 77.662 8.1201
1.529698 77.803 7.7480
1.540783 77.944 7.3773
1.551948 78.084 7.0078
1.563194 78.224 6.6391
1.574521 78.364 6.2709
1.585931 78.503 5.9028
1.597423 78.642 5.5346
1.608999 78.781 5.1659
1.620658 78.920 4.7964
1.632402 79.059 4.4258
1.644232 79.197 4.0537
1.656146 79.335 3.6797
1.668147 79.473 3.3036
1.680235 79.611 2.9251
1.692411 79.749 2.5437
1.704675 79.887 2.1592
1.717028 80.024 1.7713
1.729470 80.162 1.3795
1.742003 80.300 0.9837
1.754626 80.438 0.5833
1.767341 80.575 0.1782
1.780147 80.713 -0.2320
1.793047 80.851 -0.6477
1.806040 80.990 -1.0690
1.819128 81.128 -1.4958
1.832310 81.266 -1.9277
1.845587 81.404 -2.3633
1.858961 81.542 -2.8014
1.872432 81.680 -3.2413
1.886001 81.817 -3.6827
1.899667 81.953 -4.1254
1.913433 82.089 -4.5693
1.927299 82.225 -5.0145
1.941265 82.360 -5.4610
1.955332 82.495 -5.9087
1.969501 82.630 -6.3578
1.983773 82.764 -6.8083
1.998148 82.897 -7.2603
2.012627 83.031 -7.7138
2.027212 83.164 -8.1691
2.041902 83.297 -8.6261
2.056698 83.430 -9.0852
2.071602 83.562 -9.5464
2.086614 83.694 -10.0100
2.101734 83.826 -10.4760
2.116964 83.958 -10.9449
2.132304 84.090 -11.4167
2.147756 84.222 -11.8917
2.163320 84.353 -12.3701
2.178996 84.485 -12.8522
2.194786 84.616 -13.3380
2.210690 84.747 -13.8273
2.226710 84.878 -14.3198
2.242845 85.008 -14.8151
2.259098 85.138 -15.3129
2.275468 85.267 -15.8130
2.291957 85.395 -16.3152
2.308566 85.523 -16.8194
2.325295 85.651 -17.3254
2.342145 85.777 -17.8332
2.359117 85.904 -18.3426
2.376212 86.030 -18.8537
2.393431 86.155 -19.3664
2.410775 86.280 -19.8807
2.428244 86.405 -20.3966
2.445840 86.529 -20.9142
2.463564 86.653 -21.4336
2.481416 86.776 -21.9548
2.499397 86.900 -22.4780
2.517509 87.023 -23.0034
2.535752 87.146 -23.5311
2.554127 87.269 -24.0614
2.572635 87.391 -24.5949
2.591277 87.513 -25.1317
2.610055 87.634 -25.6722
2.628968 87.754 -26.2160
2.648019 87.874 -26.7629
2.667208 87.993 -27.3125
2.686535 88.111 -27.8646
2.706003 88.229 -28.4189
2.725612 88.346 -28.9752
2.745363 88.463 -29.5332
2.765257 88.579 -30.0927
2.785295 88.694 -30.6535
2.805478 88.809 -31.2156
2.825808 88.924 -31.7788
2.846285 89.038 -32.3430
2.866910 89.152 -32.9082
2.887685 89.265 -33.4744
2.908611 89.378 -34.0420
2.929688 89.491 -34.6113
2.950917 89.603 -35.1835
2.972301 89.715 -35.7592
2.993839 89.825 -36.3385
3.015534 89.935 -36.9214
3.037386 90.044 -37.5072
3.059396 90.153 -38.0957
3.081565 90.261 -38.6864
3.103896 90.368 -39.2789
3.126388 90.474 -39.8727
3.149043 90.580 -40.4677
3.171862 90.685 -41.0633
3.194847 90.790 -41.6594
3.217998 90.894 -42.2557
3.241317 90.998 -42.8520
3.264805 91.101 -43.4483
3.288463 91.204 -44.0451
3.312293 91.307 -44.6434
3.336295 91.408 -45.2443
3.360471 91.509 -45.8485
3.384822 91.609 -46.4558
3.409350 91.709 -47.0658
3.434056 91.807 -47.6782
3.458940 91.905 -48.2924
3.484005 92.002 -48.9080
3.509252 92.098 -49.5245
3.534681 92.194 -50.1415
3.560295 92.290 -50.7587
3.586094 92.384 -51.3756
3.612081 92.479 -51.9920
3.638255 92.572 -52.6081
3.664620 92.666 -53.2244
3.691175 92.758 -53.8422
3.717923 92.850 -54.4627
3.744864 92.941 -55.0860
3.772001 93.032 -55.7121
3.799335 93.121 -56.3402
3.826866 93.210 -56.9701
3.854597 93.298 -57.6010
3.882529 93.385 -58.2325
3.910664 93.472 -58.8641
3.939002 93.558 -59.4952
3.967546 93.644 -60.1255
3.996296 93.729 -60.7549
4.025255 93.813 -61.3837
4.054423 93.897 -62.0132
4.083804 93.981 -62.6445
4.113396 94.063 -63.2782
4.143204 94.145 -63.9141
4.173227 94.225 -64.5517
4.203468 94.305 -65.1904
4.233928 94.385 -65.8298
4.264609 94.463 -66.4691
4.295512 94.541 -67.1078
4.326639 94.619 -67.7455
4.357992 94.696 -68.3820
4.389572 94.772 -69.0174
4.421380 94.848 -69.6531
4.453419 94.923 -70.2901
4.485691 94.997 -70.9289
4.518196 95.070 -71.5695
4.550936 95.143 -72.2111
4.583914 95.215 -72.8533
4.617131 95.286 -73.4953
4.650589 95.356 -74.1365
4.684289 95.426 -74.7764
4.718233 95.496 -75.4144
4.752424 95.564 -76.0509
4.786862 95.632 -76.6866
4.821549 95.700 -77.3228
4.856488 95.766 -77.9600
4.891680 95.832 -78.5981
4.927127 95.897 -79.2366
4.962831 95.961 -79.8747
4.998794 96.025 -80.5120
5.035017 96.088 -81.1476
5.071503 96.150 -81.7811
5.108253 96.212 -82.4124
5.145270 96.274 -83.0418
5.182555 96.335 -83.6706
5.220110 96.395 -84.2993
5.257937 96.454 -84.9280
5.296038 96.513 -85.5563
5.334415 96.571 -86.1837
5.373071 96.628 -86.8096
5.412006 96.685 -87.4336
5.451224 96.742 -88.0552
5.490725 96.798 -88.6744
5.530514 96.854 -89.2917
5.570590 96.909 -89.9078
5.610957 96.964 -90.5231
5.651616 97.018 -91.1375
5.692570 97.071 -91.7509
5.733821 97.124 -92.3630
5.775370 97.177 -92.9734
5.817221 97.230 -93.5820
5.859375 97.282 -94.1887
5.901834 97.334 -94.7937
5.944602 97.386 -95.3975
5.987679 97.438 -96.0004
6.031068 97.488 -96.6025
6.074771 97.539 -97.2039
6.118792 97.590 -97.8046
6.163131 97.640 -98.4046
6.207792 97.690 -99.0041
6.252776 97.740 -99.6031
6.298086 97.790 -100.2018
6.343725 97.839 -100.8003
6.389694 97.888 -101.3989
6.435996 97.937 -101.9978
6.482634 97.986 -102.5971
6.529610 98.034 -103.1970
6.576926 98.083 -103.7978
6.624585 98.131 -104.3997
6.672590 98.178 -105.0029
6.720942 98.226 -105.6075
6.769645 98.273 -106.2133
6.818700 98.320 -106.8205
6.868111 98.366 -107.4288
6.917881 98.412 -108.0386
6.968010 98.457 -108.6501
7.018504 98.502 -109.2637
7.069362 98.546 -109.8798
7.120590 98.589 -110.4979
7.172189 98.632 -111.1175
7.224161 98.675 -111.7381
7.276511 98.716 -112.3594
7.329239 98.757 -112.9813
7.382350 98.797 -113.6048
7.435845 98.836 -114.2302
7.489729 98.874 -114.8569
7.544002 98.911 -115.4841
7.598669 98.947 -116.1106
7.653732 98.983 -116.7356
7.709194 99.017 -117.3591
7.765058 99.050 -117.9820
7.821327 99.082 -118.6046
7.878004 99.113 -119.2260
7.935091 99.143 -119.8452
7.992592 99.172 -120.4608
8.050510 99.201 -121.0723
8.108847 99.228 -121.6797
8.167607 99.254 -122.2837
8.226793 99.279 -122.8842
8.286408 99.304 -123.4806
8.346454 99.327 -124.0719
8.406936 99.350 -124.6575
8.467856 99.373 -125.2371
8.529218 99.395 -125.8110
8.591024 99.416 -126.3796
8.653278 99.436 -126.9430
8.715983 99.457 -127.5011
8.779143 99.477 -128.0538
8.842760 99.497 -128.6008
8.906839 99.517 -129.1423
8.971381 99.537 -129.6788
9.036392 99.557 -130.2111
9.101873 99.577 -130.7399
9.167829 99.597 -131.2655
9.234263 99.617 -131.7878
9.301178 99.637 -132.3070
9.368578 99.657 -132.8238
9.436467 99.678 -133.3391
9.504847 99.698 -133.8540
9.573723 99.718 -134.3687
9.643099 99.739 -134.8830
9.712976 99.759 -135.3973
9.783361 99.780 -135.9120
9.854255 99.800 -136.4276
9.925663 99.820 -136.9446
9.997588 99.839 -137.4632
10.070035 99.858 -137.9829
10.143007 99.877 -138.5036
10.216507 99.895 -139.0251
10.290540 99.912 -139.5473
10.365109 99.928 -140.0705
10.440219 99.944 -140.5943
10.515873 99.959 -141.1178
10.592076 99.973 -141.6403
10.668830 99.986 -142.1615
10.746141 99.998 -142.6815
10.824012 100.009 -143.2000
10.902447 100.020 -143.7160
10.981451 100.029 -144.2290
11.061027 100.038 -144.7386
11.141180 100.046 -145.2449
11.221913 100.054 -145.7479
11.303232 100.060 -146.2474
11.385140 100.067 -146.7430
11.467641 100.073 -147.2348
11.550741 100.078 -147.7231
11.634442 100.083 -148.2085
11.718750 100.088 -148.6912
11.803669 100.093 -149.1715
11.889203 100.098 -149.6495
11.975357 100.102 -150.1260
12.062136 100.106 -150.6018
12.149543 100.110 -151.0772
12.237583 100.113 -151.5524
12.326262 100.117 -152.0278
12.415583 100.120 -152.5040
12.505552 100.122 -152.9811
12.596172 100.124 -153.4595
12.687449 100.125 -153.9388
12.779387 100.126 -154.4190
12.871992 100.126 -154.9000
12.965268 100.125 -155.3817
13.059220 100.123 -155.8637
13.153852 100.120 -156.3450
13.249170 100.116 -156.8254
13.345179 100.111 -157.3045
13.441884 100.104 -157.7816
13.539289 100.097 -158.2558
13.637401 100.090 -158.7267
13.736223 100.081 -159.1940
13.835761 100.071 -159.6572
13.936021 100.060 -160.1157
14.037007 100.049 -160.5694
14.138725 100.038 -161.0182
14.241180 100.025 -161.4622
14.344377 100.013 -161.9016
14.448323 100.000 -162.3364
14.553021 99.987 -162.7670
14.658478 99.974 -163.1942
14.764700 99.961 -163.6182
14.871691 99.947 -164.0394
14.979457 99.934 -164.4584
15.088005 99.920 -164.8759
15.197339 99.906 -165.2919
15.307465 99.892 -165.7067
15.418389 99.877 -166.1204
15.530117 99.862 -166.5329
15.642655 99.846 -166.9440
15.756008 99.830 -167.3530
15.870182 99.813 -167.7595
15.985184 99.795 -168.1627
16.101019 99.776 -168.5617
16.217694 99.757 -168.9556
16.335214 99.737 -169.3438
16.453586 99.716 -169.7254
16.572815 99.695 -170.1000
16.692909 99.674 -170.4672
16.813872 99.653 -170.8273
16.935713 99.632 -171.1806
17.058436 99.611 -171.5276
17.182048 99.590 -171.8697
17.306556 99.570 -172.2080
17.431967 99.551 -172.5436
17.558286 99.532 -172.8782
17.685521 99.513 -173.2131
17.813677 99.495 -173.5490
17.942762 99.476 -173.8866
18.072783 99.457 -174.2260
18.203746 99.437 -174.5666
18.335658 99.416 -174.9073
18.468526 99.394 -175.2467
18.602356 99.371 -175.5831
18.737156 99.347 -175.9142
18.872934 99.322 -176.2385
19.009695 99.296 -176.5547
19.147447 99.270 -176.8618
19.286197 99.244 -177.1600
19.425953 99.218 -177.4507
19.566721 99.193 -177.7355
19.708510 99.170 -178.0173
19.851326 99.147 -178.2997
19.995177 99.125 -178.5856
20.140070 99.103 -178.8782
20.286013 99.081 -179.1796
20.433014 99.058 -179.4900
20.581080 99.034 -179.8087
20.730219 99.008 179.8669
20.880439 98.978 179.5417
21.031747 98.946 179.2212
21.184152 98.910 178.9117
21.337661 98.871 178.6203
21.492282 98.831 178.3520
21.648024 98.790 178.1107
21.804895 98.749 177.8983
21.962902 98.710 177.7126
22.122054 98.675 177.5496
22.282360 98.643 177.4023
22.443827 98.617 177.2612
22.606464 98.595 177.1177
22.770280 98.577 176.9623
22.935283 98.562 176.7884
23.101481 98.549 176.5917
23.268884 98.536 176.3711
23.437500 98.522 176.1295
23.607338 98.506 175.8716
23.778406 98.488 175.6048
23.950714 98.466 175.3369
24.124271 98.442 175.0747
24.299086 98.416 174.8240
24.475167 98.389 174.5879
24.652524 98.362 174.3670
24.831166 98.335 174.1601
25.011103 98.310 173.9641
25.192344 98.285 173.7763
25.374898 98.262 173.5939
25.558775 98.239 173.4160
25.743984 98.216 173.2435
25.930536 98.192 173.0785
26.118439 98.169 172.9243
26.307704 98.146 172.7838
26.498341 98.123 172.6584
26.690359 98.103 172.5475
26.883768 98.085 172.4476
27.078579 98.069 172.3533
27.274801 98.057 172.2573
27.472446 98.048 172.1522
27.671522 98.041 172.0317
27.872042 98.034 171.8919
28.074014 98.026 171.7317
28.277450 98.016 171.5535
28.482360 98.003 171.3617
28.688755 97.986 171.1638
28.896645 97.965 170.9673
29.106042 97.940 170.7808
29.316957 97.910 170.6122
29.529400 97.878 170.4684
29.743382 97.843 170.3552
29.958915 97.808 170.2764
30.176009 97.774 170.2327
30.394677 97.742 170.2216
30.614929 97.715 170.2358
30.836778 97.695 170.2635
31.060234 97.681 170.2898
31.285309 97.673 170.2971
31.512015 97.671 170.2702
31.740364 97.672 170.1977
31.970368 97.673 170.0756
32.202039 97.671 169.9083
32.435388 97.664 169.7080
32.670428 97.650 169.4922
32.907171 97.631 169.2791
33.145630 97.607 169.0852
33.385817 97.582 168.9187
33.627745 97.557 168.7801
33.871425 97.535 168.6606
34.116871 97.517 168.5466
34.364096 97.504 168.4238
34.613113 97.493 168.2812
34.863934 97.482 168.1159
35.116572 97.469 167.9323
35.371041 97.453 167.7413
35.627354 97.435 167.5559
35.885525 97.414 167.3865
36.145566 97.393 167.2385
36.407492 97.374 167.1101
36.671316 97.358 166.9944
36.937051 97.345 166.8822
37.204712 97.334 166.7654
37.474313 97.324 166.6400
37.745867 97.315 166.5065
38.019389 97.305 166.3680
38.294893 97.295 166.2284
38.572394 97.285 166.0891
38.851905 97.276 165.9489
39.133442 97.266 165.8048
39.417019 97.257 165.6539
39.702651 97.247 165.4958
39.990353 97.235 165.3328
40.280140 97.222 165.1697
40.572026 97.206 165.0115
40.866028 97.190 164.8618
41.162160 97.174 164.7219
41.460438 97.157 164.5918
41.760877 97.142 164.4713
42.063494 97.128 164.3600
42.368303 97.115 164.2560
42.675322 97.107 164.1535
42.984565 97.102 164.0414
43.296048 97.101 163.9055
43.609789 97.101 163.7336
43.925804 97.100 163.5220
44.244108 97.095 163.2809
44.564719 97.083 163.0327
44.887654 97.065 162.8029
45.212928 97.045 162.6098
45.540560 97.026 162.4557
45.870565 97.011 162.3258
46.202962 97.003 162.1954
46.537768 96.999 162.0419
46.875000 96.996 161.8564
47.214676 96.989 161.6458
47.556813 96.979 161.4262
47.901429 96.966 161.2127
48.248542 96.951 161.0119
48.598171 96.936 160.8217
48.950334 96.922 160.6362
49.305048 96.906 160.4526
49.662333 96.890 160.2720
50.022206 96.873 160.0979
50.384688 96.856 159.9311
50.749796 96.840 159.7676
51.117550 96.825 159.6003
51.487969 96.811 159.4234
51.861072 96.795 159.2363
52.236879 96.778 159.0445
52.615409 96.759 158.8566
52.996681 96.739 158.6798
53.380717 96.720 158.5149
53.767536 96.703 158.3548
54.157158 96.690 158.1868
54.549603 96.678 157.9992
54.944892 96.667 157.7883
55.343045 96.654 157.5600
55.744084 96.638 157.3259
56.148028 96.620 157.0956
56.554900 96.602 156.8741
56.964720 96.583 156.6645
57.377510 96.564 156.4717
57.793291 96.546 156.2997
58.212085 96.531 156.1425
58.633914 96.520 155.9822
59.058799 96.512 155.8010
59.486764 96.501 155.5989
59.917829 96.485 155.3980
60.352019 96.466 155.2230
60.789354 96.447 155.0755
61.229859 96.432 154.9321
61.673556 96.416 154.7697
62.120468 96.396 154.5916
62.570618 96.371 154.4205
63.024031 96.344 154.2680
63.480729 96.317 154.1205
63.940736 96.288 153.9645
64.404077 96.255 153.8190
64.870776 96.220 153.7225
65.340856 96.194 153.6764
65.814343 96.184 153.6119
66.291261 96.186 153.4350
66.771635 96.184 153.1160
67.255489 96.165 152.7229
67.742850 96.129 152.3647
68.233743 96.088 152.1010
68.728193 96.052 151.9099
69.226226 96.025 151.7319
69.727867 96.000 151.5351
70.233144 95.973 151.3326
70.742083 95.943 151.1544
71.254709 95.913 151.0145
71.771050 95.887 150.9019
72.291132 95.866 150.7903
72.814984 95.848 150.6524
73.342631 95.830 150.4738
73.874102 95.808 150.2596
74.409424 95.782 150.0295
74.948626 95.753 149.8029
75.491734 95.724 149.5851
76.038779 95.697 149.3655
76.589787 95.673 149.1289
77.144788 95.648 148.8754
77.703811 95.620 148.6277
78.266885 95.592 148.4127
78.834039 95.568 148.2335
79.405303 95.549 148.0661
79.980706 95.532 147.8865
80.560280 95.513 147.6957
81.144053 95.491 147.5112
81.732056 95.465 147.3404
82.324320 95.436 147.1771
82.920876 95.404 147.0170
83.521755 95.369 146.8664
84.126988 95.333 146.7299
84.736607 95.298 146.5981
85.350643 95.266 146.4546
85.969129 95.235 146.2915
86.592097 95.205 146.1163
87.219579 95.176 145.9405
87.851608 95.149 145.7659
88.488217 95.124 145.5855
89.129439 95.098 145.4005
89.775308 95.071 145.2269
90.425856 95.043 145.0778
91.081119 95.016 144.9453
91.741131 94.990 144.8080
92.405925 94.964 144.6539
93.075536 94.935 144.4858
93.750000 94.904 144.3085
94.429351 94.871 144.1231
