* Measurement data measured by REW V5.31.3
* Source: Input device not selected, no input selected, R, volume: no control
* Format: 256k Log Swept Sine, 1 sweep at -12.0 dBFS with no timing reference
* Dated: Feb 6, 2026 4:38:06 PM
* REW Settings:
*  C-weighting compensation: Off
*  Target level: 75.0 dB
* Note: ; 
* Measurement: Roseselsa Ceramics Mk2 D L
* Smoothing: 1/24 octave
* Frequency Step: 96 ppo
* Start Frequency: 0.36621094 Hz
*
* Freq(Hz) SPL(dB) Phase(degrees)
0.366211 52.160 77.2481
0.368865 52.208 77.0504
0.371538 52.276 76.7671
0.374230 52.352 76.4493
0.376942 52.432 76.1200
0.379673 52.514 75.7874
0.382424 52.596 75.4542
0.385196 52.679 75.1212
0.387987 52.763 74.7887
0.390798 52.847 74.4567
0.393630 52.932 74.1253
0.396483 53.017 73.7946
0.399356 53.103 73.4646
0.402250 53.190 73.1354
0.405165 53.277 72.8068
0.408101 53.365 72.4791
0.411058 53.454 72.1522
0.414037 53.543 71.8262
0.417037 53.633 71.5009
0.420059 53.723 71.1766
0.423103 53.814 70.8531
0.426169 53.906 70.5304
0.429257 53.999 70.2087
0.432368 54.092 69.8878
0.435501 54.186 69.5678
0.438656 54.280 69.2486
0.441835 54.375 68.9303
0.445037 54.471 68.6129
0.448262 54.568 68.2962
0.451510 54.665 67.9803
0.454782 54.763 67.6652
0.458077 54.862 67.3509
0.461397 54.961 67.0373
0.464740 55.061 66.7243
0.468108 55.162 66.4120
0.471500 55.264 66.1003
0.474917 55.366 65.7891
0.478358 55.469 65.4785
0.481825 55.573 65.1683
0.485316 55.677 64.8586
0.488833 55.783 64.5492
0.492375 55.889 64.2401
0.495943 55.996 63.9314
0.499537 56.103 63.6228
0.503157 56.212 63.3143
0.506803 56.321 63.0060
0.510475 56.431 62.6976
0.514175 56.542 62.3892
0.517900 56.653 62.0807
0.521653 56.766 61.7721
0.525434 56.879 61.4632
0.529241 56.993 61.1539
0.533076 57.108 60.8443
0.536939 57.223 60.5343
0.540830 57.340 60.2237
0.544749 57.457 59.9125
0.548696 57.575 59.6006
0.552673 57.695 59.2880
0.556677 57.814 58.9746
0.560711 57.935 58.6602
0.564774 58.057 58.3449
0.568867 58.180 58.0285
0.572989 58.303 57.7110
0.577141 58.427 57.3923
0.581324 58.553 57.0723
0.585536 58.679 56.7510
0.589779 58.806 56.4282
0.594053 58.934 56.1039
0.598358 59.063 55.7780
0.602694 59.193 55.4505
0.607061 59.323 55.1212
0.611460 59.455 54.7901
0.615891 59.588 54.4572
0.620354 59.722 54.1223
0.624849 59.856 53.7853
0.629377 59.992 53.4463
0.633938 60.128 53.1051
0.638532 60.266 52.7616
0.643159 60.405 52.4159
0.647819 60.544 52.0678
0.652514 60.685 51.7172
0.657242 60.826 51.3642
0.662005 60.969 51.0085
0.666802 61.113 50.6503
0.671634 61.257 50.2894
0.676501 61.403 49.9257
0.681403 61.550 49.5592
0.686341 61.698 49.1899
0.691314 61.847 48.8177
0.696324 61.997 48.4425
0.701370 62.148 48.0643
0.706452 62.300 47.6830
0.711571 62.453 47.2987
0.716728 62.608 46.9114
0.721921 62.762 46.5212
0.727153 62.915 46.1289
0.732422 63.065 45.7360
0.737729 63.209 45.3454
0.743075 63.348 44.9600
0.748460 63.487 44.5811
0.753883 63.625 44.2092
0.759346 63.762 43.8441
0.764849 63.900 43.4857
0.770391 64.039 43.1338
0.775974 64.177 42.7879
0.781597 64.315 42.4479
0.787261 64.454 42.1133
0.792966 64.593 41.7840
0.798712 64.732 41.4595
0.804500 64.871 41.1397
0.810329 65.011 40.8241
0.816201 65.150 40.5126
0.822116 65.290 40.2047
0.828073 65.430 39.9001
0.834074 65.570 39.5986
0.840118 65.710 39.2999
0.846206 65.851 39.0037
0.852338 65.991 38.7097
0.858514 66.132 38.4175
0.864735 66.273 38.1269
0.871001 66.414 37.8376
0.877313 66.555 37.5494
0.883670 66.697 37.2619
0.890074 66.838 36.9749
0.896524 66.980 36.6881
0.903020 67.122 36.4012
0.909564 67.265 36.1140
0.916155 67.407 35.8262
0.922794 67.550 35.5375
0.929481 67.693 35.2477
0.936216 67.836 34.9566
0.943000 67.979 34.6638
0.949834 68.123 34.3692
0.956717 68.266 34.0725
0.963649 68.410 33.7735
0.970632 68.555 33.4720
0.977666 68.699 33.1676
0.984750 68.844 32.8602
0.991886 68.989 32.5495
0.999074 69.134 32.2354
1.006314 69.280 31.9176
1.013606 69.426 31.5959
1.020951 69.572 31.2701
1.028349 69.719 30.9400
1.035801 69.866 30.6053
1.043307 70.013 30.2659
1.050867 70.161 29.9216
1.058482 70.309 29.5722
1.066152 70.457 29.2174
1.073878 70.606 28.8572
1.081660 70.755 28.4916
1.089498 70.905 28.1209
1.097393 71.055 27.7461
1.105345 71.205 27.3696
1.113355 71.355 26.9939
1.121423 71.505 26.6204
1.129549 71.655 26.2496
1.137734 71.805 25.8815
1.145979 71.954 25.5161
1.154283 72.103 25.1531
1.162647 72.252 24.7924
1.171072 72.401 24.4338
1.179558 72.549 24.0770
1.188106 72.697 23.7219
1.196715 72.846 23.3682
1.205387 72.994 23.0157
1.214122 73.141 22.6642
1.222920 73.289 22.3135
1.231782 73.436 21.9633
1.240708 73.584 21.6134
1.249699 73.731 21.2636
1.258754 73.878 20.9136
1.267876 74.025 20.5632
1.277063 74.172 20.2122
1.286318 74.319 19.8603
1.295639 74.465 19.5073
1.305027 74.612 19.1530
1.314484 74.759 18.7971
1.324009 74.906 18.4394
1.333604 75.052 18.0796
1.343268 75.199 17.7175
1.353002 75.346 17.3529
1.362806 75.493 16.9855
1.372681 75.640 16.6150
1.382628 75.787 16.2412
1.392647 75.935 15.8640
1.402739 76.083 15.4829
1.412904 76.230 15.0978
1.423142 76.379 14.7085
1.433455 76.527 14.3147
1.443843 76.676 13.9164
1.454305 76.825 13.5138
1.464844 76.974 13.1080
1.475459 77.124 12.7009
1.486150 77.273 12.2944
1.496920 77.421 11.8896
1.507767 77.570 11.4865
1.518693 77.718 11.0851
1.529698 77.865 10.6852
1.540783 78.012 10.2864
1.551948 78.159 9.8884
1.563194 78.306 9.4909
1.574521 78.452 9.0936
1.585931 78.597 8.6961
1.597423 78.743 8.2982
1.608999 78.888 7.8993
1.620658 79.032 7.4993
1.632402 79.177 7.0978
1.644232 79.321 6.6943
1.656146 79.465 6.2886
1.668147 79.609 5.8803
1.680235 79.752 5.4691
1.692411 79.896 5.0545
1.704675 80.039 4.6362
1.717028 80.182 4.2139
1.729470 80.325 3.7871
1.742003 80.467 3.3555
1.754626 80.610 2.9187
1.767341 80.753 2.4764
1.780147 80.896 2.0281
1.793047 81.039 1.5735
1.806040 81.181 1.1124
1.819128 81.324 0.6447
1.832310 81.467 0.1708
1.845587 81.610 -0.3079
1.858961 81.752 -0.7903
1.872432 81.894 -1.2756
1.886001 82.035 -1.7632
1.899667 82.175 -2.2530
1.913433 82.315 -2.7446
1.927299 82.454 -3.2381
1.941265 82.593 -3.7332
1.955332 82.731 -4.2299
1.969501 82.869 -4.7282
1.983773 83.006 -5.2280
1.998148 83.143 -5.7293
2.012627 83.279 -6.2322
2.027212 83.415 -6.7368
2.041902 83.551 -7.2430
2.056698 83.686 -7.7511
2.071602 83.820 -8.2611
2.086614 83.955 -8.7733
2.101734 84.089 -9.2877
2.116964 84.223 -9.8046
2.132304 84.356 -10.3243
2.147756 84.490 -10.8470
2.163320 84.623 -11.3729
2.178996 84.756 -11.9024
2.194786 84.889 -12.4359
2.210690 85.021 -12.9735
2.226710 85.153 -13.5154
2.242845 85.284 -14.0613
2.259098 85.414 -14.6108
2.275468 85.544 -15.1635
2.291957 85.672 -15.7191
2.308566 85.800 -16.2772
2.325295 85.928 -16.8374
2.342145 86.054 -17.3995
2.359117 86.180 -17.9632
2.376212 86.306 -18.5283
2.393431 86.430 -19.0946
2.410775 86.555 -19.6619
2.428244 86.678 -20.2302
2.445840 86.801 -20.7993
2.463564 86.924 -21.3691
2.481416 87.046 -21.9397
2.499397 87.168 -22.5111
2.517509 87.289 -23.0834
2.535752 87.411 -23.6568
2.554127 87.531 -24.2318
2.572635 87.651 -24.8095
2.591277 87.771 -25.3909
2.610055 87.890 -25.9766
2.628968 88.007 -26.5666
2.648019 88.124 -27.1603
2.667208 88.240 -27.7572
2.686535 88.355 -28.3568
2.706003 88.469 -28.9585
2.725612 88.583 -29.5618
2.745363 88.696 -30.1662
2.765257 88.808 -30.7714
2.785295 88.919 -31.3767
2.805478 89.030 -31.9819
2.825808 89.140 -32.5867
2.846285 89.249 -33.1906
2.866910 89.358 -33.7935
2.887685 89.467 -34.3952
2.908611 89.575 -34.9959
2.929688 89.683 -35.5965
2.950917 89.790 -36.1986
2.972301 89.896 -36.8038
2.993839 90.001 -37.4124
3.015534 90.106 -38.0243
3.037386 90.209 -38.6388
3.059396 90.311 -39.2555
3.081565 90.413 -39.8737
3.103896 90.513 -40.4926
3.126388 90.613 -41.1118
3.149043 90.713 -41.7305
3.171862 90.811 -42.3483
3.194847 90.909 -42.9645
3.217998 91.007 -43.5786
3.241317 91.104 -44.1903
3.264805 91.201 -44.7992
3.288463 91.297 -45.4059
3.312293 91.393 -46.0116
3.336295 91.488 -46.6179
3.360471 91.582 -47.2258
3.384822 91.675 -47.8354
3.409350 91.768 -48.4463
3.434056 91.859 -49.0582
3.458940 91.950 -49.6704
3.484005 92.040 -50.2825
3.509252 92.129 -50.8939
3.534681 92.218 -51.5041
3.560295 92.307 -52.1126
3.586094 92.395 -52.7189
3.612081 92.483 -53.3226
3.638255 92.570 -53.9235
3.664620 92.657 -54.5220
3.691175 92.744 -55.1193
3.717923 92.830 -55.7164
3.744864 92.916 -56.3137
3.772001 93.000 -56.9114
3.799335 93.084 -57.5092
3.826866 93.168 -58.1068
3.854597 93.251 -58.7041
3.882529 93.334 -59.3008
3.910664 93.416 -59.8964
3.939002 93.498 -60.4909
3.967546 93.580 -61.0839
3.996296 93.661 -61.6752
4.025255 93.743 -62.2649
4.054423 93.824 -62.8535
4.083804 93.905 -63.4416
4.113396 93.986 -64.0296
4.143204 94.066 -64.6176
4.173227 94.145 -65.2057
4.203468 94.225 -65.7940
4.233928 94.304 -66.3824
4.264609 94.382 -66.9711
4.295512 94.461 -67.5599
4.326639 94.539 -68.1490
4.357992 94.617 -68.7384
4.389572 94.695 -69.3283
4.421380 94.773 -69.9189
4.453419 94.851 -70.5105
4.485691 94.928 -71.1033
4.518196 95.005 -71.6972
4.550936 95.082 -72.2924
4.583914 95.159 -72.8888
4.617131 95.235 -73.4866
4.650589 95.310 -74.0858
4.684289 95.386 -74.6864
4.718233 95.461 -75.2887
4.752424 95.536 -75.8931
4.786862 95.610 -76.4998
4.821549 95.684 -77.1095
4.856488 95.758 -77.7221
4.891680 95.831 -78.3375
4.927127 95.904 -78.9554
4.962831 95.976 -79.5753
4.998794 96.048 -80.1972
5.035017 96.119 -80.8206
5.071503 96.190 -81.4456
5.108253 96.259 -82.0725
5.145270 96.329 -82.7019
5.182555 96.397 -83.3348
5.220110 96.465 -83.9718
5.257937 96.532 -84.6122
5.296038 96.598 -85.2555
5.334415 96.663 -85.9006
5.373071 96.728 -86.5468
5.412006 96.792 -87.1933
5.451224 96.855 -87.8396
5.490725 96.916 -88.4861
5.530514 96.977 -89.1341
5.570590 97.037 -89.7848
5.610957 97.096 -90.4383
5.651616 97.154 -91.0938
5.692570 97.210 -91.7501
5.733821 97.266 -92.4058
5.775370 97.321 -93.0597
5.817221 97.375 -93.7110
5.859375 97.428 -94.3595
5.901834 97.480 -95.0067
5.944602 97.530 -95.6537
5.987679 97.580 -96.3008
6.031068 97.628 -96.9471
6.074771 97.675 -97.5917
6.118792 97.722 -98.2332
6.163131 97.768 -98.8706
6.207792 97.813 -99.5030
6.252776 97.857 -100.1307
6.298086 97.901 -100.7549
6.343725 97.943 -101.3761
6.389694 97.985 -101.9943
6.435996 98.026 -102.6093
6.482634 98.067 -103.2204
6.529610 98.107 -103.8270
6.576926 98.147 -104.4287
6.624585 98.187 -105.0253
6.672590 98.226 -105.6171
6.720942 98.265 -106.2047
6.769645 98.304 -106.7886
6.818700 98.342 -107.3694
6.868111 98.381 -107.9474
6.917881 98.419 -108.5230
6.968010 98.458 -109.0959
7.018504 98.497 -109.6659
7.069362 98.536 -110.2330
7.120590 98.575 -110.7979
7.172189 98.614 -111.3616
7.224161 98.653 -111.9252
7.276511 98.692 -112.4894
7.329239 98.732 -113.0549
7.382350 98.771 -113.6213
7.435845 98.811 -114.1886
7.489729 98.851 -114.7569
7.544002 98.891 -115.3270
7.598669 98.931 -115.8995
7.653732 98.970 -116.4753
7.709194 99.009 -117.0549
7.765058 99.048 -117.6386
7.821327 99.087 -118.2262
7.878004 99.125 -118.8172
7.935091 99.163 -119.4114
7.992592 99.200 -120.0085
8.050510 99.236 -120.6088
8.108847 99.271 -121.2130
8.167607 99.305 -121.8213
8.226793 99.338 -122.4330
8.286408 99.370 -123.0469
8.346454 99.401 -123.6615
8.406936 99.431 -124.2761
8.467856 99.459 -124.8909
8.529218 99.486 -125.5068
8.591024 99.512 -126.1232
8.653278 99.536 -126.7384
8.715983 99.559 -127.3507
8.779143 99.581 -127.9587
8.842760 99.601 -128.5625
8.906839 99.620 -129.1625
8.971381 99.638 -129.7587
9.036392 99.655 -130.3497
9.101873 99.670 -130.9343
9.167829 99.685 -131.5115
9.234263 99.699 -132.0814
9.301178 99.713 -132.6443
9.368578 99.725 -133.2004
9.436467 99.738 -133.7497
9.504847 99.750 -134.2919
9.573723 99.762 -134.8268
9.643099 99.773 -135.3543
9.712976 99.785 -135.8753
9.783361 99.797 -136.3909
9.854255 99.808 -136.9019
9.925663 99.821 -137.4088
9.997588 99.833 -137.9112
10.070035 99.846 -138.4099
10.143007 99.859 -138.9060
10.216507 99.872 -139.4010
10.290540 99.886 -139.8955
10.365109 99.899 -140.3895
10.440219 99.913 -140.8832
10.515873 99.927 -141.3771
10.592076 99.940 -141.8720
10.668830 99.954 -142.3683
10.746141 99.967 -142.8660
10.824012 99.980 -143.3648
10.902447 99.992 -143.8642
10.981451 100.003 -144.3640
11.061027 100.014 -144.8642
11.141180 100.025 -145.3647
11.221913 100.034 -145.8645
11.303232 100.043 -146.3628
11.385140 100.051 -146.8588
11.467641 100.058 -147.3525
11.550741 100.065 -147.8435
11.634442 100.070 -148.3312
11.718750 100.076 -148.8149
11.803669 100.080 -149.2943
11.889203 100.085 -149.7694
11.975357 100.089 -150.2406
12.062136 100.093 -150.7081
12.149543 100.097 -151.1719
12.237583 100.101 -151.6321
12.326262 100.104 -152.0898
12.415583 100.108 -152.5461
12.505552 100.113 -153.0016
12.596172 100.117 -153.4566
12.687449 100.121 -153.9120
12.779387 100.125 -154.3692
12.871992 100.130 -154.8288
12.965268 100.134 -155.2913
13.059220 100.137 -155.7568
13.153852 100.140 -156.2257
13.249170 100.142 -156.6982
13.345179 100.144 -157.1743
13.441884 100.144 -157.6531
13.539289 100.143 -158.1337
13.637401 100.140 -158.6154
13.736223 100.136 -159.0977
13.835761 100.131 -159.5786
13.936021 100.123 -160.0564
14.037007 100.114 -160.5303
14.138725 100.104 -160.9991
14.241180 100.092 -161.4610
14.344377 100.078 -161.9144
14.448323 100.064 -162.3589
14.553021 100.048 -162.7937
14.658478 100.032 -163.2183
14.764700 100.016 -163.6322
14.871691 99.999 -164.0358
14.979457 99.982 -164.4299
15.088005 99.966 -164.8152
15.197339 99.950 -165.1925
15.307465 99.935 -165.5634
15.418389 99.920 -165.9297
15.530117 99.906 -166.2926
15.642655 99.893 -166.6535
15.756008 99.881 -167.0145
15.870182 99.869 -167.3767
15.985184 99.857 -167.7412
16.101019 99.846 -168.1091
16.217694 99.835 -168.4815
16.335214 99.823 -168.8585
16.453586 99.812 -169.2406
16.572815 99.799 -169.6279
16.692909 99.786 -170.0205
16.813872 99.772 -170.4180
16.935713 99.757 -170.8201
17.058436 99.741 -171.2262
17.182048 99.723 -171.6355
17.306556 99.703 -172.0469
17.431967 99.682 -172.4593
17.558286 99.658 -172.8707
17.685521 99.632 -173.2790
17.813677 99.604 -173.6822
17.942762 99.573 -174.0768
18.072783 99.540 -174.4599
18.203746 99.505 -174.8286
18.335658 99.469 -175.1794
18.468526 99.431 -175.5097
18.602356 99.394 -175.8181
18.737156 99.356 -176.1037
18.872934 99.320 -176.3669
19.009695 99.286 -176.6111
19.147447 99.255 -176.8405
19.286197 99.229 -177.0606
19.425953 99.206 -177.2799
19.566721 99.187 -177.5058
19.708510 99.172 -177.7463
19.851326 99.159 -178.0097
19.995177 99.148 -178.3004
20.140070 99.137 -178.6210
20.286013 99.124 -178.9715
20.433014 99.108 -179.3473
20.581080 99.086 -179.7402
20.730219 99.059 179.8589
20.880439 99.026 179.4636
21.031747 98.986 179.0869
21.184152 98.941 178.7408
21.337661 98.893 178.4367
21.492282 98.843 178.1805
21.648024 98.795 177.9735
21.804895 98.750 177.8132
21.962902 98.710 177.6890
22.122054 98.679 177.5876
22.282360 98.655 177.4934
22.443827 98.638 177.3885
22.606464 98.628 177.2601
22.770280 98.621 177.0978
22.935283 98.615 176.8978
23.101481 98.608 176.6633
23.268884 98.597 176.4017
23.437500 98.582 176.1263
23.607338 98.562 175.8514
23.778406 98.537 175.5906
23.950714 98.509 175.3554
24.124271 98.480 175.1505
24.299086 98.452 174.9755
24.475167 98.428 174.8242
24.652524 98.407 174.6844
24.831166 98.392 174.5441
25.011103 98.379 174.3899
25.192344 98.369 174.2141
25.374898 98.357 174.0133
25.558775 98.344 173.7910
25.743984 98.326 173.5568
25.930536 98.302 173.3221
26.118439 98.275 173.1012
26.307704 98.243 172.9039
26.498341 98.210 172.7367
26.690359 98.178 172.5992
26.883768 98.148 172.4850
27.078579 98.121 172.3846
27.274801 98.096 172.2862
27.472446 98.075 172.1810
27.671522 98.053 172.0645
27.872042 98.031 171.9387
28.074014 98.006 171.8102
28.277450 97.979 171.6895
28.482360 97.950 171.5860
28.688755 97.921 171.5060
28.896645 97.895 171.4488
29.106042 97.874 171.4067
29.316957 97.858 171.3661
29.529400 97.848 171.3107
29.743382 97.842 171.2255
29.958915 97.839 171.1009
30.176009 97.835 170.9352
30.394677 97.828 170.7345
30.614929 97.817 170.5109
30.836778 97.801 170.2796
31.060234 97.780 170.0541
31.285309 97.757 169.8445
31.512015 97.733 169.6549
31.740364 97.709 169.4842
31.970368 97.687 169.3274
32.202039 97.666 169.1790
32.435388 97.647 169.0345
32.670428 97.629 168.8920
32.907171 97.612 168.7520
33.145630 97.595 168.6166
33.385817 97.579 168.4870
33.627745 97.564 168.3631
33.871425 97.551 168.2428
34.116871 97.539 168.1234
34.364096 97.528 168.0025
34.613113 97.517 167.8795
34.863934 97.506 167.7557
35.116572 97.493 167.6344
35.371041 97.481 167.5189
35.627354 97.468 167.4116
35.885525 97.454 167.3129
36.145566 97.442 167.2216
36.407492 97.430 167.1353
36.671316 97.419 167.0515
36.937051 97.408 166.9681
37.204712 97.399 166.8834
37.474313 97.389 166.7956
37.745867 97.381 166.7024
38.019389 97.373 166.6009
38.294893 97.365 166.4882
38.572394 97.357 166.3629
38.851905 97.348 166.2259
39.133442 97.338 166.0800
39.417019 97.326 165.9301
39.702651 97.313 165.7805
39.990353 97.299 165.6344
40.280140 97.285 165.4930
40.572026 97.272 165.3559
40.866028 97.260 165.2220
41.162160 97.249 165.0909
41.460438 97.239 164.9625
41.760877 97.230 164.8370
42.063494 97.222 164.7139
42.368303 97.217 164.5913
42.675322 97.213 164.4662
42.984565 97.210 164.3353
43.296048 97.207 164.1970
43.609789 97.204 164.0519
43.925804 97.200 163.9043
44.244108 97.193 163.7615
44.564719 97.184 163.6320
44.887654 97.174 163.5219
45.212928 97.166 163.4316
45.540560 97.159 163.3535
45.870565 97.157 163.2717
46.202962 97.158 163.1661
46.537768 97.160 163.0193
46.875000 97.159 162.8243
47.214676 97.152 162.5884
47.556813 97.136 162.3319
47.901429 97.111 162.0809
48.248542 97.080 161.8580
48.598171 97.045 161.6755
48.950334 97.011 161.5330
49.305048 96.981 161.4192
49.662333 96.955 161.3171
50.022206 96.935 161.2095
50.384688 96.919 161.0842
50.749796 96.905 160.9373
51.117550 96.891 160.7742
51.487969 96.877 160.6057
51.861072 96.863 160.4411
52.236879 96.850 160.2820
52.615409 96.839 160.1223
52.996681 96.829 159.9560
53.380717 96.817 159.7872
53.767536 96.801 159.6322
54.157158 96.784 159.5083
54.549603 96.769 159.4172
54.944892 96.759 159.3374
55.343045 96.753 159.2371
55.744084 96.747 159.0982
56.148028 96.735 158.9303
56.554900 96.717 158.7609
56.964720 96.696 158.6072
57.377510 96.676 158.4592
57.793291 96.656 158.2909
58.212085 96.634 158.0918
58.633914 96.606 157.8837
59.058799 96.573 157.7030
59.486764 96.542 157.5651
59.917829 96.519 157.4452
60.352019 96.505 157.3001
60.789354 96.494 157.1074
61.229859 96.481 156.8815
61.673556 96.465 156.6527
62.120468 96.449 156.4410
62.570618 96.432 156.2537
63.024031 96.417 156.1026
63.480729 96.405 156.0019
63.940736 96.404 155.9359
64.404077 96.417 155.8363
64.870776 96.436 155.6200
65.340856 96.445 155.2687
65.814343 96.428 154.8678
66.291261 96.385 154.5537
66.771635 96.333 154.4061
67.255489 96.291 154.3822
67.742850 96.266 154.3573
68.233743 96.244 154.2415
68.728193 96.210 154.0612
69.226226 96.160 153.9360
69.727867 96.107 153.9666
70.233144 96.076 154.1181
70.742083 96.080 154.2018
71.254709 96.100 154.0182
71.771050 96.098 153.5538
72.291132 96.044 153.0417
72.814984 95.952 152.7997
73.342631 95.870 152.9516
73.874102 95.844 153.2777
74.409424 95.871 153.3964
74.948626 95.906 153.1212
75.491734 95.904 152.5879
76.038779 95.857 152.0814
76.589787 95.787 151.8051
77.144788 95.728 151.7708
77.703811 95.697 151.8412
78.266885 95.695 151.8470
78.834039 95.705 151.6865
79.405303 95.707 151.3721
79.980706 95.688 151.0038
80.560280 95.651 150.6918
81.144053 95.607 150.4905
81.732056 95.564 150.3887
82.324320 95.529 150.3440
82.920876 95.501 150.3115
83.521755 95.480 150.2588
84.126988 95.460 150.1756
84.736607 95.441 150.0681
85.350643 95.422 149.9298
85.969129 95.404 149.7379
86.592097 95.379 149.4964
87.219579 95.345 149.2595
87.851608 95.308 149.0781
88.488217 95.277 148.9399
89.129439 95.252 148.7979
89.775308 95.231 148.6353
90.425856 95.209 148.4663
91.081119 95.187 148.2985
91.741131 95.164 148.1350
92.405925 95.140 147.9871
93.075536 95.116 147.8503
93.750000 95.092 147.6981
94.429351 95.063 147.5215
