* Measurement data measured by REW V5.31.3
* Source: Input device not selected, no input selected, R, volume: no control
* Format: 256k Log Swept Sine, 1 sweep at -12.0 dBFS with no timing reference
* Dated: Feb 6, 2026 4:39:44 PM
* REW Settings:
*  C-weighting compensation: Off
*  Target level: 75.0 dB
* Note: ; 
* Measurement: Roseselsa Ceramics Mk2 R
* Smoothing: 1/24 octave
* Frequency Step: 96 ppo
* Start Frequency: 0.36621094 Hz
*
* Freq(Hz) SPL(dB) Phase(degrees)
0.366211 57.104 39.1344
0.368865 57.147 39.0977
0.371538 57.207 39.0462
0.374230 57.276 38.9900
0.376942 57.348 38.9337
0.379673 57.421 38.8789
0.382424 57.495 38.8260
0.385196 57.569 38.7752
0.387987 57.644 38.7264
0.390798 57.719 38.6796
0.393630 57.795 38.6348
0.396483 57.872 38.5917
0.399356 57.949 38.5505
0.402250 58.026 38.5110
0.405165 58.104 38.4732
0.408101 58.183 38.4369
0.411058 58.263 38.4022
0.414037 58.342 38.3689
0.417037 58.423 38.3369
0.420059 58.504 38.3062
0.423103 58.586 38.2768
0.426169 58.668 38.2484
0.429257 58.751 38.2211
0.432368 58.834 38.1947
0.435501 58.918 38.1692
0.438656 59.003 38.1444
0.441835 59.088 38.1203
0.445037 59.174 38.0968
0.448262 59.261 38.0738
0.451510 59.348 38.0512
0.454782 59.435 38.0289
0.458077 59.524 38.0068
0.461397 59.613 37.9848
0.464740 59.703 37.9628
0.468108 59.793 37.9408
0.471500 59.884 37.9186
0.474917 59.976 37.8960
0.478358 60.068 37.8731
0.481825 60.161 37.8498
0.485316 60.255 37.8258
0.488833 60.349 37.8012
0.492375 60.444 37.7757
0.495943 60.540 37.7494
0.499537 60.636 37.7221
0.503157 60.733 37.6937
0.506803 60.831 37.6641
0.510475 60.929 37.6332
0.514175 61.029 37.6009
0.517900 61.129 37.5671
0.521653 61.229 37.5317
0.525434 61.331 37.4946
0.529241 61.433 37.4557
0.533076 61.536 37.4149
0.536939 61.639 37.3721
0.540830 61.744 37.3272
0.544749 61.849 37.2801
0.548696 61.955 37.2308
0.552673 62.062 37.1790
0.556677 62.169 37.1247
0.560711 62.277 37.0679
0.564774 62.386 37.0084
0.568867 62.496 36.9461
0.572989 62.607 36.8810
0.577141 62.718 36.8129
0.581324 62.830 36.7418
0.585536 62.943 36.6676
0.589779 63.057 36.5901
0.594053 63.172 36.5094
0.598358 63.287 36.4253
0.602694 63.403 36.3377
0.607061 63.521 36.2467
0.611460 63.639 36.1519
0.615891 63.758 36.0535
0.620354 63.877 35.9514
0.624849 63.998 35.8453
0.629377 64.119 35.7354
0.633938 64.242 35.6215
0.638532 64.365 35.5035
0.643159 64.489 35.3814
0.647819 64.614 35.2552
0.652514 64.740 35.1246
0.657242 64.867 34.9898
0.662005 64.995 34.8506
0.666802 65.123 34.7070
0.671634 65.253 34.5588
0.676501 65.384 34.4062
0.681403 65.515 34.2490
0.686341 65.648 34.0871
0.691314 65.781 33.9205
0.696324 65.915 33.7493
0.701370 66.051 33.5732
0.706452 66.187 33.3924
0.711571 66.324 33.2067
0.716728 66.463 33.0163
0.721921 66.601 32.8213
0.727153 66.739 32.6222
0.732422 66.873 32.4206
0.737729 67.003 32.2190
0.743075 67.130 32.0198
0.748460 67.256 31.8243
0.753883 67.381 31.6328
0.759346 67.506 31.4453
0.764849 67.632 31.2614
0.770391 67.758 31.0811
0.775974 67.884 30.9039
0.781597 68.010 30.7297
0.787261 68.137 30.5581
0.792966 68.264 30.3888
0.798712 68.391 30.2217
0.804500 68.518 30.0564
0.810329 68.646 29.8927
0.816201 68.774 29.7303
0.822116 68.902 29.5689
0.828073 69.030 29.4084
0.834074 69.158 29.2483
0.840118 69.287 29.0886
0.846206 69.416 28.9289
0.852338 69.545 28.7689
0.858514 69.675 28.6085
0.864735 69.805 28.4474
0.871001 69.935 28.2854
0.877313 70.065 28.1222
0.883670 70.195 27.9576
0.890074 70.326 27.7913
0.896524 70.457 27.6232
0.903020 70.588 27.4531
0.909564 70.720 27.2806
0.916155 70.852 27.1057
0.922794 70.984 26.9280
0.929481 71.116 26.7474
0.936216 71.249 26.5636
0.943000 71.382 26.3766
0.949834 71.515 26.1859
0.956717 71.648 25.9916
0.963649 71.782 25.7933
0.970632 71.916 25.5909
0.977666 72.051 25.3842
0.984750 72.186 25.1729
0.991886 72.321 24.9570
0.999074 72.456 24.7363
1.006314 72.592 24.5105
1.013606 72.728 24.2794
1.020951 72.865 24.0430
1.028349 73.002 23.8010
1.035801 73.139 23.5533
1.043307 73.277 23.2996
1.050867 73.415 23.0399
1.058482 73.554 22.7740
1.066152 73.693 22.5017
1.073878 73.832 22.2229
1.081660 73.972 21.9377
1.089498 74.113 21.6464
1.097393 74.253 21.3501
1.105345 74.394 21.0510
1.113355 74.536 20.7517
1.121423 74.677 20.4534
1.129549 74.818 20.1567
1.137734 74.959 19.8616
1.145979 75.100 19.5679
1.154283 75.242 19.2755
1.162647 75.383 18.9843
1.171072 75.524 18.6939
1.179558 75.665 18.4041
1.188106 75.806 18.1148
1.196715 75.947 17.8258
1.205387 76.088 17.5368
1.214122 76.229 17.2477
1.222920 76.371 16.9581
1.231782 76.512 16.6679
1.240708 76.653 16.3769
1.249699 76.794 16.0849
1.258754 76.935 15.7916
1.267876 77.077 15.4967
1.277063 77.218 15.2002
1.286318 77.359 14.9018
1.295639 77.501 14.6012
1.305027 77.642 14.2982
1.314484 77.784 13.9926
1.324009 77.925 13.6843
1.333604 78.067 13.3728
1.343268 78.209 13.0581
1.353002 78.351 12.7399
1.362806 78.493 12.4180
1.372681 78.636 12.0922
1.382628 78.778 11.7621
1.392647 78.921 11.4277
1.402739 79.064 11.0886
1.412904 79.207 10.7447
1.423142 79.350 10.3957
1.433455 79.494 10.0415
1.443843 79.638 9.6820
1.454305 79.782 9.3174
1.464844 79.926 8.9490
1.475459 80.071 8.5785
1.486150 80.215 8.2082
1.496920 80.359 7.8389
1.507767 80.503 7.4708
1.518693 80.646 7.1038
1.529698 80.789 6.7376
1.540783 80.932 6.3720
1.551948 81.075 6.0066
1.563194 81.218 5.6411
1.574521 81.360 5.2751
1.585931 81.502 4.9084
1.597423 81.643 4.5405
1.608999 81.785 4.1712
1.620658 81.926 3.8001
1.632402 82.067 3.4268
1.644232 82.208 3.0510
1.656146 82.349 2.6724
1.668147 82.490 2.2906
1.680235 82.630 1.9052
1.692411 82.771 1.5159
1.704675 82.911 1.1223
1.717028 83.051 0.7241
1.729470 83.191 0.3209
1.742003 83.331 -0.0877
1.754626 83.471 -0.5020
1.767341 83.612 -0.9225
1.780147 83.752 -1.3494
1.793047 83.892 -1.7831
1.806040 84.032 -2.2239
1.819128 84.172 -2.6718
1.832310 84.312 -3.1261
1.845587 84.452 -3.5856
1.858961 84.592 -4.0490
1.872432 84.731 -4.5153
1.886001 84.870 -4.9841
1.899667 85.008 -5.4553
1.913433 85.146 -5.9286
1.927299 85.283 -6.4040
1.941265 85.420 -6.8814
1.955332 85.556 -7.3607
1.969501 85.692 -7.8420
1.983773 85.827 -8.3253
1.998148 85.962 -8.8105
2.012627 86.097 -9.2978
2.027212 86.231 -9.7872
2.041902 86.365 -10.2789
2.056698 86.499 -10.7729
2.071602 86.632 -11.2695
2.086614 86.765 -11.7688
2.101734 86.898 -12.2710
2.116964 87.031 -12.7764
2.132304 87.163 -13.2852
2.147756 87.295 -13.7976
2.163320 87.427 -14.3139
2.178996 87.559 -14.8344
2.194786 87.691 -15.3595
2.210690 87.822 -15.8890
2.226710 87.953 -16.4230
2.242845 88.083 -16.9611
2.259098 88.212 -17.5029
2.275468 88.341 -18.0481
2.291957 88.469 -18.5963
2.308566 88.597 -19.1472
2.325295 88.723 -19.7005
2.342145 88.849 -20.2560
2.359117 88.975 -20.8135
2.376212 89.100 -21.3728
2.393431 89.224 -21.9338
2.410775 89.348 -22.4964
2.428244 89.472 -23.0605
2.445840 89.595 -23.6260
2.463564 89.717 -24.1930
2.481416 89.840 -24.7614
2.499397 89.961 -25.3314
2.517509 90.083 -25.9031
2.535752 90.204 -26.4767
2.554127 90.325 -27.0528
2.572635 90.445 -27.6320
2.591277 90.565 -28.2155
2.610055 90.684 -28.8036
2.628968 90.802 -29.3961
2.648019 90.919 -29.9926
2.667208 91.035 -30.5926
2.686535 91.151 -31.1955
2.706003 91.266 -31.8010
2.725612 91.380 -32.4085
2.745363 91.493 -33.0176
2.765257 91.606 -33.6279
2.785295 91.718 -34.2391
2.805478 91.829 -34.8508
2.825808 91.940 -35.4628
2.846285 92.051 -36.0748
2.866910 92.161 -36.6866
2.887685 92.270 -37.2982
2.908611 92.379 -37.9098
2.929688 92.488 -38.5223
2.950917 92.596 -39.1372
2.972301 92.703 -39.7558
2.993839 92.809 -40.3785
3.015534 92.915 -41.0051
3.037386 93.019 -41.6349
3.059396 93.122 -42.2674
3.081565 93.225 -42.9019
3.103896 93.327 -43.5379
3.126388 93.428 -44.1747
3.149043 93.529 -44.8118
3.171862 93.628 -45.4485
3.194847 93.728 -46.0845
3.217998 93.826 -46.7192
3.241317 93.925 -47.3523
3.264805 94.022 -47.9837
3.288463 94.120 -48.6139
3.312293 94.216 -49.2441
3.336295 94.312 -49.8763
3.360471 94.407 -50.5112
3.384822 94.501 -51.1489
3.409350 94.594 -51.7888
3.434056 94.687 -52.4306
3.458940 94.778 -53.0735
3.484005 94.869 -53.7169
3.509252 94.959 -54.3603
3.534681 95.048 -55.0030
3.560295 95.137 -55.6445
3.586094 95.226 -56.2841
3.612081 95.314 -56.9216
3.638255 95.401 -57.5569
3.664620 95.488 -58.1905
3.691175 95.575 -58.8239
3.717923 95.660 -59.4585
3.744864 95.745 -60.0947
3.772001 95.829 -60.7323
3.799335 95.913 -61.3711
3.826866 95.995 -62.0104
3.854597 96.077 -62.6497
3.882529 96.159 -63.2886
3.910664 96.239 -63.9264
3.939002 96.320 -64.5628
3.967546 96.400 -65.1972
3.996296 96.479 -65.8293
4.025255 96.559 -66.4596
4.054423 96.638 -67.0889
4.083804 96.716 -67.7183
4.113396 96.793 -68.3484
4.143204 96.870 -68.9793
4.173227 96.946 -69.6106
4.203468 97.022 -70.2420
4.233928 97.097 -70.8732
4.264609 97.172 -71.5039
4.295512 97.246 -72.1336
4.326639 97.320 -72.7620
4.357992 97.394 -73.3890
4.389572 97.467 -74.0148
4.421380 97.540 -74.6399
4.453419 97.612 -75.2654
4.485691 97.684 -75.8914
4.518196 97.755 -76.5181
4.550936 97.826 -77.1452
4.583914 97.896 -77.7726
4.617131 97.966 -78.3998
4.650589 98.036 -79.0268
4.684289 98.105 -79.6531
4.718233 98.174 -80.2787
4.752424 98.242 -80.9038
4.786862 98.310 -81.5288
4.821549 98.378 -82.1545
4.856488 98.445 -82.7812
4.891680 98.511 -83.4089
4.927127 98.577 -84.0373
4.962831 98.643 -84.6662
4.998794 98.708 -85.2952
5.035017 98.773 -85.9242
5.071503 98.837 -86.5529
5.108253 98.901 -87.1813
5.145270 98.964 -87.8100
5.182555 99.027 -88.4397
5.220110 99.090 -89.0707
5.257937 99.152 -89.7031
5.296038 99.213 -90.3365
5.334415 99.274 -90.9706
5.373071 99.334 -91.6049
5.412006 99.394 -92.2391
5.451224 99.454 -92.8731
5.490725 99.512 -93.5069
5.530514 99.571 -94.1413
5.570590 99.628 -94.7770
5.610957 99.686 -95.4141
5.651616 99.742 -96.0523
5.692570 99.798 -96.6913
5.733821 99.853 -97.3305
5.775370 99.908 -97.9695
5.817221 99.963 -98.6081
5.859375 100.016 -99.2463
5.901834 100.069 -99.8848
5.944602 100.122 -100.5243
5.987679 100.174 -101.1649
6.031068 100.225 -101.8064
6.074771 100.276 -102.4482
6.118792 100.326 -103.0898
6.163131 100.375 -103.7310
6.207792 100.424 -104.3715
6.252776 100.472 -105.0117
6.298086 100.520 -105.6524
6.343725 100.567 -106.2939
6.389694 100.613 -106.9360
6.435996 100.658 -107.5782
6.482634 100.703 -108.2202
6.529610 100.748 -108.8616
6.576926 100.792 -109.5022
6.624585 100.835 -110.1424
6.672590 100.877 -110.7828
6.720942 100.919 -111.4238
6.769645 100.960 -112.0649
6.818700 101.000 -112.7059
6.868111 101.040 -113.3462
6.917881 101.079 -113.9855
6.968010 101.118 -114.6240
7.018504 101.155 -115.2621
7.069362 101.192 -115.9004
7.120590 101.229 -116.5386
7.172189 101.264 -117.1764
7.224161 101.299 -117.8131
7.276511 101.333 -118.4483
7.329239 101.366 -119.0820
7.382350 101.399 -119.7147
7.435845 101.431 -120.3468
7.489729 101.462 -120.9781
7.544002 101.492 -121.6083
7.598669 101.521 -122.2365
7.653732 101.550 -122.8624
7.709194 101.578 -123.4858
7.765058 101.605 -124.1074
7.821327 101.632 -124.7273
7.878004 101.658 -125.3453
7.935091 101.683 -125.9610
7.992592 101.707 -126.5737
8.050510 101.731 -127.1831
8.108847 101.754 -127.7894
8.167607 101.776 -128.3929
8.226793 101.798 -128.9936
8.286408 101.819 -129.5915
8.346454 101.840 -130.1861
8.406936 101.860 -130.7773
8.467856 101.880 -131.3651
8.529218 101.899 -131.9495
8.591024 101.918 -132.5308
8.653278 101.937 -133.1092
8.715983 101.955 -133.6847
8.779143 101.973 -134.2573
8.842760 101.990 -134.8271
8.906839 102.007 -135.3941
8.971381 102.024 -135.9585
9.036392 102.041 -136.5207
9.101873 102.057 -137.0810
9.167829 102.073 -137.6395
9.234263 102.089 -138.1963
9.301178 102.105 -138.7515
9.368578 102.120 -139.3053
9.436467 102.135 -139.8578
9.504847 102.150 -140.4093
9.573723 102.165 -140.9600
9.643099 102.179 -141.5099
9.712976 102.192 -142.0589
9.783361 102.206 -142.6071
9.854255 102.218 -143.1544
9.925663 102.231 -143.7008
9.997588 102.242 -144.2464
10.070035 102.254 -144.7913
10.143007 102.264 -145.3349
10.216507 102.275 -145.8771
10.290540 102.284 -146.4178
10.365109 102.293 -146.9570
10.440219 102.302 -147.4946
10.515873 102.310 -148.0304
10.592076 102.317 -148.5641
10.668830 102.324 -149.0956
10.746141 102.331 -149.6249
10.824012 102.337 -150.1521
10.902447 102.342 -150.6771
10.981451 102.347 -151.1998
11.061027 102.352 -151.7204
11.141180 102.357 -152.2388
11.221913 102.361 -152.7553
11.303232 102.364 -153.2701
11.385140 102.368 -153.7834
11.467641 102.370 -154.2953
11.550741 102.373 -154.8058
11.634442 102.375 -155.3153
11.718750 102.377 -155.8239
11.803669 102.379 -156.3319
11.889203 102.380 -156.8392
11.975357 102.380 -157.3458
12.062136 102.380 -157.8517
12.149543 102.380 -158.3570
12.237583 102.379 -158.8617
12.326262 102.377 -159.3654
12.415583 102.375 -159.8679
12.505552 102.371 -160.3690
12.596172 102.368 -160.8687
12.687449 102.363 -161.3667
12.779387 102.358 -161.8627
12.871992 102.353 -162.3564
12.965268 102.346 -162.8477
13.059220 102.340 -163.3367
13.153852 102.332 -163.8233
13.249170 102.324 -164.3073
13.345179 102.316 -164.7888
13.441884 102.307 -165.2679
13.539289 102.298 -165.7450
13.637401 102.288 -166.2201
13.736223 102.278 -166.6934
13.835761 102.268 -167.1649
13.936021 102.257 -167.6351
14.037007 102.245 -168.1040
14.138725 102.233 -168.5716
14.241180 102.221 -169.0379
14.344377 102.207 -169.5028
14.448323 102.194 -169.9663
14.553021 102.179 -170.4281
14.658478 102.164 -170.8880
14.764700 102.148 -171.3457
14.871691 102.132 -171.8010
14.979457 102.115 -172.2538
15.088005 102.097 -172.7037
15.197339 102.079 -173.1507
15.307465 102.060 -173.5948
15.418389 102.041 -174.0363
15.530117 102.021 -174.4749
15.642655 102.001 -174.9111
15.756008 101.981 -175.3449
15.870182 101.960 -175.7766
15.985184 101.938 -176.2061
16.101019 101.916 -176.6333
16.217694 101.893 -177.0582
16.335214 101.869 -177.4803
16.453586 101.844 -177.8988
16.572815 101.819 -178.3130
16.692909 101.793 -178.7224
16.813872 101.766 -179.1257
16.935713 101.739 -179.5222
17.058436 101.711 -179.9113
17.182048 101.683 179.7072
17.306556 101.656 179.3335
17.431967 101.628 178.9670
17.558286 101.601 178.6065
17.685521 101.575 178.2507
17.813677 101.549 177.8979
17.942762 101.525 177.5458
18.072783 101.501 177.1924
18.203746 101.477 176.8362
18.335658 101.454 176.4756
18.468526 101.431 176.1099
18.602356 101.407 175.7397
18.737156 101.382 175.3662
18.872934 101.356 174.9911
19.009695 101.328 174.6176
19.147447 101.299 174.2492
19.286197 101.268 173.8889
19.425953 101.236 173.5400
19.566721 101.204 173.2048
19.708510 101.172 172.8838
19.851326 101.141 172.5764
19.995177 101.111 172.2806
20.140070 101.084 171.9913
20.286013 101.060 171.7035
20.433014 101.038 171.4111
20.581080 101.019 171.1071
20.730219 101.001 170.7869
20.880439 100.983 170.4470
21.031747 100.965 170.0858
21.184152 100.944 169.7060
21.337661 100.919 169.3126
21.492282 100.890 168.9127
21.648024 100.856 168.5169
21.804895 100.817 168.1351
21.962902 100.774 167.7781
22.122054 100.727 167.4554
22.282360 100.679 167.1723
22.443827 100.631 166.9315
22.606464 100.586 166.7306
22.770280 100.545 166.5624
22.935283 100.510 166.4177
23.101481 100.482 166.2826
23.268884 100.459 166.1444
23.437500 100.442 165.9910
23.607338 100.428 165.8127
23.778406 100.416 165.6053
23.950714 100.404 165.3680
24.124271 100.390 165.1050
24.299086 100.372 164.8242
24.475167 100.351 164.5345
24.652524 100.325 164.2467
24.831166 100.296 163.9692
25.011103 100.264 163.7094
25.192344 100.231 163.4710
25.374898 100.197 163.2549
25.558775 100.163 163.0595
25.743984 100.131 162.8810
25.930536 100.101 162.7153
26.118439 100.072 162.5577
26.307704 100.044 162.4053
26.498341 100.018 162.2557
26.690359 99.992 162.1080
26.883768 99.967 161.9620
27.078579 99.943 161.8175
27.274801 99.919 161.6744
27.472446 99.897 161.5320
27.671522 99.874 161.3892
27.872042 99.853 161.2450
28.074014 99.831 161.0984
28.277450 99.810 160.9492
28.482360 99.789 160.7979
28.688755 99.767 160.6456
28.896645 99.745 160.4935
29.106042 99.723 160.3433
29.316957 99.701 160.1955
29.529400 99.678 160.0507
29.743382 99.656 159.9086
29.958915 99.634 159.7687
30.176009 99.613 159.6305
30.394677 99.591 159.4939
30.614929 99.570 159.3588
30.836778 99.550 159.2252
31.060234 99.529 159.0930
31.285309 99.510 158.9611
31.512015 99.491 158.8284
31.740364 99.472 158.6936
31.970368 99.454 158.5560
32.202039 99.436 158.4160
32.435388 99.417 158.2755
32.670428 99.397 158.1376
32.907171 99.377 158.0058
33.145630 99.357 157.8826
33.385817 99.338 157.7681
33.627745 99.321 157.6601
33.871425 99.306 157.5531
34.116871 99.293 157.4409
34.364096 99.281 157.3177
34.613113 99.270 157.1802
34.863934 99.258 157.0287
35.116572 99.245 156.8675
35.371041 99.229 156.7036
35.627354 99.211 156.5445
35.885525 99.191 156.3961
36.145566 99.171 156.2615
36.407492 99.152 156.1394
36.671316 99.134 156.0259
36.937051 99.118 155.9155
37.204712 99.103 155.8026
37.474313 99.089 155.6841
37.745867 99.076 155.5590
38.019389 99.062 155.4287
38.294893 99.048 155.2958
38.572394 99.033 155.1630
38.851905 99.019 155.0316
39.133442 99.005 154.9014
39.417019 98.992 154.7704
39.702651 98.979 154.6359
39.990353 98.968 154.4953
40.280140 98.956 154.3470
40.572026 98.945 154.1908
40.866028 98.933 154.0280
41.162160 98.920 153.8607
41.460438 98.906 153.6906
41.760877 98.892 153.5196
42.063494 98.877 153.3489
42.368303 98.861 153.1802
42.675322 98.844 153.0163
42.984565 98.827 152.8601
43.296048 98.810 152.7141
43.609789 98.793 152.5782
43.925804 98.779 152.4486
44.244108 98.767 152.3177
44.564719 98.757 152.1771
44.887654 98.748 152.0216
45.212928 98.738 151.8517
45.540560 98.725 151.6740
45.870565 98.711 151.4980
46.202962 98.695 151.3313
46.537768 98.679 151.1757
46.875000 98.663 151.0264
47.214676 98.649 150.8756
47.556813 98.635 150.7180
47.901429 98.620 150.5546
48.248542 98.604 150.3920
48.598171 98.586 150.2373
48.950334 98.569 150.0926
49.305048 98.553 149.9526
49.662333 98.539 149.8083
50.022206 98.526 149.6518
50.384688 98.512 149.4818
50.749796 98.497 149.3033
51.117550 98.480 149.1235
51.487969 98.462 148.9467
51.861072 98.444 148.7729
52.236879 98.426 148.5992
52.615409 98.408 148.4247
52.996681 98.389 148.2515
53.380717 98.370 148.0836
53.767536 98.350 147.9235
54.157158 98.331 147.7702
54.549603 98.312 147.6212
54.944892 98.293 147.4745
55.343045 98.275 147.3306
55.744084 98.256 147.1903
56.148028 98.237 147.0534
56.554900 98.218 146.9189
56.964720 98.198 146.7863
57.377510 98.179 146.6567
57.793291 98.159 146.5305
58.212085 98.140 146.4034
58.633914 98.122 146.2660
59.058799 98.104 146.1075
59.486764 98.085 145.9243
59.917829 98.062 145.7246
60.352019 98.035 145.5257
60.789354 98.007 145.3418
61.229859 97.979 145.1726
61.673556 97.954 145.0040
62.120468 97.932 144.8214
62.570618 97.909 144.6267
63.024031 97.886 144.4380
63.480729 97.866 144.2660
63.940736 97.852 144.0904
64.404077 97.844 143.8664
64.870776 97.833 143.5690
65.340856 97.807 143.2353
65.814343 97.765 142.9565
66.291261 97.714 142.8142
66.771635 97.671 142.8120
67.255489 97.645 142.8715
67.742850 97.634 142.8982
68.233743 97.625 142.8550
68.728193 97.612 142.7680
69.226226 97.594 142.6775
69.727867 97.574 142.5948
70.233144 97.554 142.5059
70.742083 97.531 142.3995
71.254709 97.506 142.2799
71.771050 97.479 142.1557
72.291132 97.451 142.0275
72.814984 97.423 141.8899
73.342631 97.394 141.7398
73.874102 97.365 141.5790
74.409424 97.336 141.4121
74.948626 97.307 141.2426
75.491734 97.278 141.0713
76.038779 97.249 140.8973
76.589787 97.220 140.7211
77.144788 97.191 140.5463
77.703811 97.162 140.3736
78.266885 97.133 140.1971
78.834039 97.103 140.0111
79.405303 97.070 139.8234
79.980706 97.034 139.6495
80.560280 96.998 139.4905
81.144053 96.964 139.3247
81.732056 96.930 139.1319
82.324320 96.893 138.9205
82.920876 96.852 138.7186
83.521755 96.811 138.5370
84.126988 96.775 138.3572
84.736607 96.742 138.1564
85.350643 96.710 137.9310
85.969129 96.679 137.6874
86.592097 96.647 137.4302
87.219579 96.614 137.1709
87.851608 96.580 136.9297
88.488217 96.549 136.7142
89.129439 96.521 136.5097
89.775308 96.495 136.3004
90.425856 96.470 136.0847
91.081119 96.444 135.8663
