* Measurement data measured by REW V5.31.3
* Source: Headset (CX31993 HIFI AUDIO), MICROPHONE (Master Volume), R, volume: 0.400
* Format: 256k Log Swept Sine, 1 sweep at -11.9 dBFS with no timing reference
* Dated: 07 7, 25 1:17:06 PM
* REW Settings:
*  C-weighting compensation: Off
*  Target level: 75.0 dB
* Note: ; 
* Measurement: Senheiser IE 200 BT20 g R
* Smoothing: 1/12 octave
* Frequency Step: 96 ppo
* Start Frequency: 0.36621094 Hz
*
* Freq(Hz) SPL(dB) Phase(degrees)
0.366211 30.453 -26.3653
0.368865 30.460 -26.2276
0.371538 30.472 -26.0229
0.374230 30.485 -25.7691
0.376942 30.501 -25.4815
0.379673 30.517 -25.1713
0.382424 30.535 -24.8458
0.385196 30.553 -24.5095
0.387987 30.571 -24.1647
0.390798 30.589 -23.8126
0.393630 30.607 -23.4534
0.396483 30.626 -23.0872
0.399356 30.645 -22.7136
0.402250 30.664 -22.3320
0.405165 30.683 -21.9419
0.408101 30.702 -21.5427
0.411058 30.721 -21.1335
0.414037 30.741 -20.7137
0.417037 30.760 -20.2824
0.420059 30.780 -19.8387
0.423103 30.800 -19.3817
0.426169 30.820 -18.9103
0.429257 30.840 -18.4236
0.432368 30.861 -17.9203
0.435501 30.881 -17.3994
0.438656 30.902 -16.8595
0.441835 30.923 -16.2993
0.445037 30.944 -15.7173
0.448262 30.965 -15.1121
0.451510 30.986 -14.4819
0.454782 31.007 -13.8252
0.458077 31.029 -13.1401
0.461397 31.051 -12.4247
0.464740 31.072 -11.6770
0.468108 31.094 -10.8949
0.471500 31.117 -10.0762
0.474917 31.139 -9.2185
0.478358 31.161 -8.3195
0.481825 31.184 -7.3767
0.485316 31.207 -6.3874
0.488833 31.230 -5.3492
0.492375 31.253 -4.2592
0.495943 31.276 -3.1150
0.499537 31.300 -1.9137
0.503157 31.324 -0.6530
0.506803 31.348 0.6697
0.510475 31.372 2.0566
0.514175 31.396 3.5095
0.517900 31.420 5.0301
0.521653 31.445 6.6195
0.525434 31.469 8.2783
0.529241 31.494 10.0063
0.533076 31.519 11.8027
0.536939 31.545 13.6657
0.540830 31.570 15.5924
0.544749 31.596 17.5790
0.548696 31.622 19.6205
0.552673 31.648 21.7107
0.556677 31.674 23.8423
0.560711 31.700 26.0069
0.564774 31.727 28.1953
0.568867 31.753 30.3975
0.572989 31.780 32.6029
0.577141 31.808 34.8006
0.581324 31.835 36.9798
0.585536 31.863 39.1298
0.589779 31.890 41.2405
0.594053 31.918 43.3025
0.598358 31.946 45.3072
0.602694 31.975 47.2473
0.607061 32.003 49.1163
0.611460 32.032 50.9092
0.615891 32.061 52.6218
0.620354 32.090 54.2513
0.624849 32.120 55.7957
0.629377 32.149 57.2540
0.633938 32.179 58.6262
0.638532 32.209 59.9127
0.643159 32.239 61.1147
0.647819 32.270 62.2338
0.652514 32.301 63.2721
0.657242 32.332 64.2318
0.662005 32.363 65.1155
0.666802 32.394 65.9259
0.671634 32.426 66.6658
0.676501 32.458 67.3380
0.681403 32.490 67.9454
0.686341 32.522 68.4909
0.691314 32.556 68.9774
0.696324 32.589 69.4078
0.701370 32.624 69.7852
0.706452 32.661 70.1128
0.711571 32.701 70.3941
0.716728 32.746 70.6332
0.721921 32.799 70.8353
0.727153 32.862 71.0063
0.732422 32.940 71.1533
0.737729 33.035 71.2836
0.743075 33.145 71.4038
0.748460 33.270 71.5188
0.753883 33.406 71.6315
0.759346 33.551 71.7433
0.764849 33.706 71.8547
0.770391 33.868 71.9653
0.775974 34.038 72.0744
0.781597 34.214 72.1814
0.787261 34.397 72.2852
0.792966 34.586 72.3850
0.798712 34.782 72.4800
0.804500 34.984 72.5695
0.810329 35.192 72.6527
0.816201 35.407 72.7290
0.822116 35.627 72.7978
0.828073 35.853 72.8584
0.834074 36.085 72.9104
0.840118 36.322 72.9533
0.846206 36.565 72.9867
0.852338 36.812 73.0102
0.858514 37.065 73.0234
0.864735 37.323 73.0259
0.871001 37.585 73.0175
0.877313 37.852 72.9978
0.883670 38.123 72.9666
0.890074 38.398 72.9235
0.896524 38.677 72.8685
0.903020 38.959 72.8012
0.909564 39.245 72.7215
0.916155 39.533 72.6292
0.922794 39.825 72.5240
0.929481 40.119 72.4058
0.936216 40.414 72.2745
0.943000 40.712 72.1299
0.949834 41.011 71.9719
0.956717 41.311 71.8003
0.963649 41.612 71.6150
0.970632 41.914 71.4158
0.977666 42.215 71.2028
0.984750 42.516 70.9757
0.991886 42.815 70.7345
0.999074 43.114 70.4790
1.006314 43.411 70.2093
1.013606 43.705 69.9251
1.020951 43.997 69.6265
1.028349 44.285 69.3133
1.035801 44.569 68.9857
1.043307 44.850 68.6435
1.050867 45.125 68.2870
1.058482 45.395 67.9162
1.066152 45.659 67.5317
1.073878 45.918 67.1343
1.081660 46.170 66.7251
1.089498 46.416 66.3059
1.097393 46.657 65.8793
1.105345 46.893 65.4481
1.113355 47.124 65.0154
1.121423 47.351 64.5834
1.129549 47.575 64.1538
1.137734 47.795 63.7276
1.145979 48.013 63.3053
1.154283 48.228 62.8868
1.162647 48.440 62.4720
1.171072 48.650 62.0608
1.179558 48.857 61.6526
1.188106 49.062 61.2472
1.196715 49.264 60.8441
1.205387 49.464 60.4429
1.214122 49.662 60.0431
1.222920 49.858 59.6444
1.231782 50.052 59.2463
1.240708 50.244 58.8484
1.249699 50.434 58.4503
1.258754 50.622 58.0515
1.267876 50.809 57.6516
1.277063 50.994 57.2503
1.286318 51.178 56.8470
1.295639 51.361 56.4415
1.305027 51.543 56.0332
1.314484 51.723 55.6219
1.324009 51.903 55.2070
1.333604 52.083 54.7882
1.343268 52.262 54.3651
1.353002 52.441 53.9373
1.362806 52.619 53.5045
1.372681 52.798 53.0661
1.382628 52.978 52.6220
1.392647 53.157 52.1717
1.402739 53.338 51.7150
1.412904 53.519 51.2517
1.423142 53.702 50.7816
1.433455 53.886 50.3051
1.443843 54.070 49.8225
1.454305 54.256 49.3349
1.464844 54.442 48.8435
1.475459 54.628 48.3500
1.486150 54.814 47.8561
1.496920 55.000 47.3631
1.507767 55.184 46.8717
1.518693 55.368 46.3824
1.529698 55.550 45.8951
1.540783 55.732 45.4098
1.551948 55.912 44.9261
1.563194 56.091 44.4436
1.574521 56.269 43.9619
1.585931 56.446 43.4806
1.597423 56.623 42.9990
1.608999 56.798 42.5168
1.620658 56.972 42.0334
1.632402 57.146 41.5484
1.644232 57.319 41.0612
1.656146 57.491 40.5714
1.668147 57.662 40.0783
1.680235 57.833 39.5816
1.692411 58.004 39.0807
1.704675 58.174 38.5752
1.717028 58.343 38.0644
1.729470 58.513 37.5480
1.742003 58.682 37.0254
1.754626 58.852 36.4962
1.767341 59.021 35.9600
1.780147 59.191 35.4166
1.793047 59.360 34.8658
1.806040 59.529 34.3077
1.819128 59.699 33.7426
1.832310 59.868 33.1713
1.845587 60.037 32.5949
1.858961 60.205 32.0144
1.872432 60.373 31.4308
1.886001 60.540 30.8450
1.899667 60.706 30.2574
1.913433 60.871 29.6686
1.927299 61.035 29.0788
1.941265 61.198 28.4882
1.955332 61.360 27.8968
1.969501 61.522 27.3046
1.983773 61.682 26.7117
1.998148 61.843 26.1179
2.012627 62.002 25.5230
2.027212 62.161 24.9270
2.041902 62.319 24.3296
2.056698 62.476 23.7306
2.071602 62.633 23.1297
2.086614 62.790 22.5266
2.101734 62.946 21.9209
2.116964 63.102 21.3123
2.132304 63.258 20.7004
2.147756 63.413 20.0849
2.163320 63.568 19.4654
2.178996 63.723 18.8418
2.194786 63.877 18.2137
2.210690 64.030 17.5815
2.226710 64.183 16.9451
2.242845 64.336 16.3051
2.259098 64.487 15.6619
2.275468 64.637 15.0159
2.291957 64.787 14.3676
2.308566 64.936 13.7173
2.325295 65.083 13.0655
2.342145 65.230 12.4125
2.359117 65.376 11.7584
2.376212 65.521 11.1035
2.393431 65.666 10.4480
2.410775 65.810 9.7918
2.428244 65.953 9.1351
2.445840 66.095 8.4778
2.463564 66.237 7.8197
2.481416 66.379 7.1608
2.499397 66.520 6.5007
2.517509 66.660 5.8391
2.535752 66.800 5.1756
2.554127 66.939 4.5095
2.572635 67.078 3.8403
2.591277 67.216 3.1677
2.610055 67.352 2.4913
2.628968 67.488 1.8114
2.648019 67.623 1.1281
2.667208 67.757 0.4421
2.686535 67.890 -0.2462
2.706003 68.022 -0.9362
2.725612 68.153 -1.6273
2.745363 68.283 -2.3190
2.765257 68.413 -3.0109
2.785295 68.541 -3.7024
2.805478 68.669 -4.3933
2.825808 68.796 -5.0833
2.846285 68.923 -5.7723
2.866910 69.049 -6.4604
2.887685 69.174 -7.1479
2.908611 69.298 -7.8352
2.929688 69.422 -8.5231
2.950917 69.544 -9.2125
2.972301 69.666 -9.9040
2.993839 69.787 -10.5980
3.015534 69.907 -11.2944
3.037386 70.026 -11.9929
3.059396 70.143 -12.6930
3.081565 70.260 -13.3940
3.103896 70.376 -14.0953
3.126388 70.491 -14.7960
3.149043 70.605 -15.4956
3.171862 70.718 -16.1934
3.194847 70.830 -16.8890
3.217998 70.942 -17.5821
3.241317 71.053 -18.2726
3.264805 71.164 -18.9607
3.288463 71.273 -19.6470
3.312293 71.382 -20.3322
3.336295 71.490 -21.0173
3.360471 71.597 -21.7028
3.384822 71.703 -22.3888
3.409350 71.808 -23.0754
3.434056 71.912 -23.7620
3.458940 72.015 -24.4482
3.484005 72.117 -25.1332
3.509252 72.219 -25.8164
3.534681 72.320 -26.4971
3.560295 72.420 -27.1748
3.586094 72.519 -27.8490
3.612081 72.618 -28.5195
3.638255 72.717 -29.1865
3.664620 72.814 -29.8503
3.691175 72.912 -30.5116
3.717923 73.008 -31.1709
3.744864 73.103 -31.8287
3.772001 73.198 -32.4852
3.799335 73.292 -33.1404
3.826866 73.386 -33.7939
3.854597 73.478 -34.4454
3.882529 73.570 -35.0945
3.910664 73.662 -35.7407
3.939002 73.753 -36.3838
3.967546 73.844 -37.0234
3.996296 73.935 -37.6595
4.025255 74.025 -38.2921
4.054423 74.115 -38.9216
4.083804 74.205 -39.5482
4.113396 74.294 -40.1725
4.143204 74.383 -40.7947
4.173227 74.471 -41.4148
4.203468 74.559 -42.0331
4.233928 74.646 -42.6495
4.264609 74.733 -43.2640
4.295512 74.820 -43.8766
4.326639 74.907 -44.4872
4.357992 74.994 -45.0958
4.389572 75.081 -45.7026
4.421380 75.167 -46.3075
4.453419 75.254 -46.9108
4.485691 75.340 -47.5127
4.518196 75.426 -48.1134
4.550936 75.512 -48.7132
4.583914 75.597 -49.3124
4.617131 75.683 -49.9113
4.650589 75.768 -50.5100
4.684289 75.854 -51.1089
4.718233 75.939 -51.7081
4.752424 76.024 -52.3078
4.786862 76.109 -52.9082
4.821549 76.193 -53.5092
4.856488 76.278 -54.1111
4.891680 76.362 -54.7140
4.927127 76.447 -55.3178
4.962831 76.530 -55.9229
4.998794 76.614 -56.5293
5.035017 76.697 -57.1374
5.071503 76.780 -57.7474
5.108253 76.863 -58.3595
5.145270 76.945 -58.9741
5.182555 77.026 -59.5912
5.220110 77.107 -60.2109
5.257937 77.188 -60.8330
5.296038 77.268 -61.4574
5.334415 77.348 -62.0837
5.373071 77.426 -62.7118
5.412006 77.504 -63.3415
5.451224 77.582 -63.9731
5.490725 77.658 -64.6065
5.530514 77.733 -65.2422
5.570590 77.808 -65.8801
5.610957 77.881 -66.5202
5.651616 77.954 -67.1619
5.692570 78.026 -67.8046
5.733821 78.096 -68.4476
5.775370 78.166 -69.0904
5.817221 78.234 -69.7326
5.859375 78.301 -70.3741
5.901834 78.367 -71.0152
5.944602 78.432 -71.6558
5.987679 78.495 -72.2958
6.031068 78.557 -72.9345
6.074771 78.618 -73.5710
6.118792 78.678 -74.2045
6.163131 78.737 -74.8342
6.207792 78.794 -75.4596
6.252776 78.851 -76.0806
6.298086 78.906 -76.6972
6.343725 78.960 -77.3093
6.389694 79.013 -77.9166
6.435996 79.065 -78.5186
6.482634 79.116 -79.1144
6.529610 79.167 -79.7035
6.576926 79.216 -80.2853
6.624585 79.265 -80.8597
6.672590 79.314 -81.4266
6.720942 79.361 -81.9862
6.769645 79.409 -82.5385
6.818700 79.456 -83.0835
6.868111 79.502 -83.6211
6.917881 79.549 -84.1511
6.968010 79.596 -84.6735
7.018504 79.643 -85.1883
7.069362 79.690 -85.6959
7.120590 79.737 -86.1967
7.172189 79.784 -86.6915
7.224161 79.832 -87.1808
7.276511 79.881 -87.6651
7.329239 79.930 -88.1450
7.382350 79.980 -88.6207
7.435845 80.031 -89.0928
7.489729 80.082 -89.5621
7.544002 80.134 -90.0294
7.598669 80.187 -90.4958
7.653732 80.240 -90.9622
7.709194 80.294 -91.4293
7.765058 80.349 -91.8976
7.821327 80.405 -92.3675
7.878004 80.461 -92.8399
7.935091 80.518 -93.3154
7.992592 80.575 -93.7948
8.050510 80.633 -94.2787
8.108847 80.691 -94.7676
8.167607 80.749 -95.2618
8.226793 80.807 -95.7614
8.286408 80.865 -96.2665
8.346454 80.923 -96.7773
8.406936 80.980 -97.2941
8.467856 81.037 -97.8168
8.529218 81.094 -98.3453
8.591024 81.150 -98.8795
8.653278 81.205 -99.4190
8.715983 81.260 -99.9632
8.779143 81.314 -100.5119
8.842760 81.366 -101.0649
8.906839 81.418 -101.6217
8.971381 81.469 -102.1818
9.036392 81.518 -102.7446
9.101873 81.567 -103.3095
9.167829 81.614 -103.8760
9.234263 81.660 -104.4436
9.301178 81.705 -105.0119
9.368578 81.749 -105.5805
9.436467 81.792 -106.1487
9.504847 81.834 -106.7161
9.573723 81.874 -107.2823
9.643099 81.914 -107.8470
9.712976 81.952 -108.4099
9.783361 81.990 -108.9707
9.854255 82.026 -109.5291
9.925663 82.062 -110.0848
9.997588 82.097 -110.6377
10.070035 82.131 -111.1876
10.143007 82.164 -111.7343
10.216507 82.196 -112.2777
10.290540 82.228 -112.8177
10.365109 82.259 -113.3541
10.440219 82.289 -113.8869
10.515873 82.319 -114.4159
10.592076 82.348 -114.9410
10.668830 82.377 -115.4622
10.746141 82.405 -115.9794
10.824012 82.432 -116.4924
10.902447 82.460 -117.0013
10.981451 82.486 -117.5060
11.061027 82.513 -118.0065
11.141180 82.539 -118.5028
11.221913 82.565 -118.9949
11.303232 82.590 -119.4831
11.385140 82.616 -119.9674
11.467641 82.641 -120.4479
11.550741 82.666 -120.9250
11.634442 82.691 -121.3990
11.718750 82.717 -121.8701
11.803669 82.742 -122.3387
11.889203 82.767 -122.8050
11.975357 82.792 -123.2695
12.062136 82.818 -123.7325
12.149543 82.843 -124.1943
12.237583 82.868 -124.6551
12.326262 82.893 -125.1151
12.415583 82.918 -125.5743
12.505552 82.943 -126.0329
12.596172 82.967 -126.4907
12.687449 82.991 -126.9477
12.779387 83.015 -127.4035
12.871992 83.038 -127.8580
12.965268 83.061 -128.3108
13.059220 83.083 -128.7616
13.153852 83.106 -129.2102
13.249170 83.128 -129.6561
13.345179 83.149 -130.0994
13.441884 83.171 -130.5398
13.539289 83.192 -130.9775
13.637401 83.213 -131.4126
13.736223 83.234 -131.8454
13.835761 83.256 -132.2764
13.936021 83.277 -132.7063
14.037007 83.298 -133.1355
14.138725 83.320 -133.5647
14.241180 83.341 -133.9948
14.344377 83.363 -134.4262
14.448323 83.384 -134.8593
14.553021 83.405 -135.2944
14.658478 83.425 -135.7313
14.764700 83.444 -136.1698
14.871691 83.463 -136.6092
14.979457 83.480 -137.0484
15.088005 83.496 -137.4860
15.197339 83.511 -137.9207
15.307465 83.525 -138.3506
15.418389 83.537 -138.7740
15.530117 83.549 -139.1892
15.642655 83.560 -139.5948
15.756008 83.570 -139.9897
15.870182 83.581 -140.3733
15.985184 83.591 -140.7457
16.101019 83.603 -141.1078
16.217694 83.616 -141.4609
16.335214 83.631 -141.8074
16.453586 83.648 -142.1502
16.572815 83.667 -142.4928
16.692909 83.688 -142.8390
16.813872 83.711 -143.1926
16.935713 83.736 -143.5574
17.058436 83.763 -143.9365
17.182048 83.790 -144.3325
17.306556 83.817 -144.7471
17.431967 83.844 -145.1808
17.558286 83.870 -145.6333
17.685521 83.894 -146.1029
17.813677 83.915 -146.5871
17.942762 83.934 -147.0827
18.072783 83.949 -147.5858
18.203746 83.962 -148.0921
18.335658 83.971 -148.5976
18.468526 83.976 -149.0984
18.602356 83.980 -149.5910
18.737156 83.981 -150.0730
18.872934 83.980 -150.5424
19.009695 83.979 -150.9987
19.147447 83.977 -151.4419
19.286197 83.975 -151.8729
19.425953 83.973 -152.2933
19.566721 83.972 -152.7051
19.708510 83.972 -153.1102
19.851326 83.972 -153.5109
19.995177 83.974 -153.9089
20.140070 83.976 -154.3058
20.286013 83.979 -154.7028
20.433014 83.982 -155.1007
20.581080 83.986 -155.5002
20.730219 83.991 -155.9019
20.880439 83.995 -156.3064
21.031747 84.000 -156.7144
21.184152 84.005 -157.1268
21.337661 84.010 -157.5442
21.492282 84.015 -157.9673
21.648024 84.020 -158.3963
21.804895 84.023 -158.8307
21.962902 84.025 -159.2694
22.122054 84.026 -159.7100
22.282360 84.024 -160.1497
22.443827 84.021 -160.5845
22.606464 84.016 -161.0103
22.770280 84.009 -161.4233
22.935283 84.001 -161.8201
23.101481 83.992 -162.1987
23.268884 83.984 -162.5589
23.437500 83.978 -162.9025
23.607338 83.974 -163.2334
23.778406 83.973 -163.5573
23.950714 83.975 -163.8809
24.124271 83.980 -164.2112
24.299086 83.987 -164.5546
24.475167 83.995 -164.9155
24.652524 84.003 -165.2961
24.831166 84.009 -165.6956
25.011103 84.013 -166.1105
25.192344 84.014 -166.5348
25.374898 84.011 -166.9610
25.558775 84.003 -167.3811
25.743984 83.993 -167.7876
25.930536 83.979 -168.1749
26.118439 83.965 -168.5399
26.307704 83.951 -168.8824
26.498341 83.937 -169.2052
26.690359 83.926 -169.5137
26.883768 83.917 -169.8147
27.078579 83.910 -170.1151
27.274801 83.906 -170.4213
27.472446 83.903 -170.7378
27.671522 83.900 -171.0668
27.872042 83.896 -171.4079
28.074014 83.891 -171.7591
28.277450 83.885 -172.1167
28.482360 83.877 -172.4768
28.688755 83.867 -172.8358
28.896645 83.856 -173.1910
29.106042 83.844 -173.5410
29.316957 83.831 -173.8856
29.529400 83.818 -174.2254
29.743382 83.806 -174.5614
29.958915 83.793 -174.8947
30.176009 83.780 -175.2260
30.394677 83.768 -175.5557
30.614929 83.755 -175.8838
30.836778 83.742 -176.2105
31.060234 83.730 -176.5362
31.285309 83.718 -176.8616
31.512015 83.705 -177.1876
31.740364 83.693 -177.5151
31.970368 83.681 -177.8447
32.202039 83.669 -178.1762
32.435388 83.655 -178.5087
32.670428 83.641 -178.8408
32.907171 83.626 -179.1709
33.145630 83.610 -179.4975
33.385817 83.594 -179.8198
33.627745 83.577 179.8622
33.871425 83.560 179.5480
34.116871 83.543 179.2371
34.364096 83.525 178.9289
34.613113 83.507 178.6234
34.863934 83.488 178.3210
35.116572 83.470 178.0222
35.371041 83.451 177.7275
35.627354 83.432 177.4363
35.885525 83.413 177.1473
36.145566 83.394 176.8587
36.407492 83.376 176.5685
36.671316 83.358 176.2754
36.937051 83.339 175.9792
37.204712 83.320 175.6808
37.474313 83.300 175.3820
37.745867 83.279 175.0852
38.019389 83.257 174.7922
38.294893 83.235 174.5038
38.572394 83.214 174.2200
38.851905 83.192 173.9393
39.133442 83.171 173.6602
39.417019 83.150 173.3811
39.702651 83.129 173.1014
39.990353 83.107 172.8223
40.280140 83.085 172.5461
40.572026 83.062 172.2761
40.866028 83.038 172.0153
41.162160 83.015 171.7650
41.460438 82.992 171.5239
41.760877 82.971 171.2882
42.063494 82.951 171.0528
42.368303 82.932 170.8130
42.675322 82.912 170.5663
42.984565 82.892 170.3128
43.296048 82.871 170.0550
43.609789 82.848 169.7957
43.925804 82.824 169.5368
44.244108 82.799 169.2789
44.564719 82.773 169.0215
44.887654 82.746 168.7647
45.212928 82.717 168.5101
45.540560 82.687 168.2604
45.870565 82.656 168.0179
46.202962 82.625 167.7833
46.537768 82.594 167.5549
46.875000 82.565 167.3293
47.214676 82.536 167.1030
47.556813 82.509 166.8734
47.901429 82.482 166.6391
48.248542 82.455 166.4003
48.598171 82.428 166.1579
48.950334 82.401 165.9146
49.305048 82.374 165.6741
49.662333 82.346 165.4406
50.022206 82.319 165.2158
50.384688 82.292 164.9980
50.749796 82.267 164.7826
51.117550 82.243 164.5648
51.487969 82.219 164.3435
51.861072 82.194 164.1219
52.236879 82.168 163.9049
52.615409 82.141 163.6949
52.996681 82.113 163.4906
53.380717 82.085 163.2893
53.767536 82.056 163.0904
54.157158 82.026 162.8969
54.549603 81.996 162.7110
54.944892 81.965 162.5304
55.343045 81.936 162.3472
55.744084 81.906 162.1544
56.148028 81.876 161.9528
56.554900 81.843 161.7509
56.964720 81.809 161.5578
57.377510 81.776 161.3727
57.793291 81.745 161.1855
58.212085 81.715 160.9863
58.633914 81.683 160.7776
59.058799 81.650 160.5739
59.486764 81.615 160.3875
59.917829 81.583 160.2150
60.352019 81.554 160.0385
60.789354 81.525 159.8433
61.229859 81.492 159.6359
61.673556 81.455 159.4410
62.120468 81.414 159.2802
62.570618 81.375 159.1512
63.024031 81.338 159.0320
63.480729 81.302 158.9045
63.940736 81.263 158.7744
64.404077 81.220 158.6646
64.870776 81.178 158.5870
65.340856 81.140 158.5251
65.814343 81.106 158.4481
66.291261 81.073 158.3416
66.771635 81.037 158.2223
67.255489 81.000 158.1159
67.742850 80.968 158.0222
68.233743 80.942 157.9069
68.728193 80.920 157.7329
69.226226 80.893 157.5014
69.727867 80.856 157.2595
70.233144 80.812 157.0638
70.742083 80.770 156.9319
71.254709 80.735 156.8283
71.771050 80.707 156.6985
72.291132 80.678 156.5214
72.814984 80.640 156.3281
73.342631 80.595 156.1714
73.874102 80.549 156.0746
74.409424 80.508 156.0097
74.948626 80.473 155.9249
75.491734 80.435 155.7964
76.038779 80.391 155.6528
76.589787 80.340 155.5478
77.144788 80.289 155.5067
77.703811 80.248 155.4974
78.266885 80.217 155.4556
78.834039 80.188 155.3425
79.405303 80.151 155.1835
79.980706 80.105 155.0484
80.560280 80.056 154.9920
81.144053 80.014 155.0061
81.732056 79.983 155.0274
82.324320 79.958 154.9959
82.920876 79.928 154.9095
83.521755 79.889 154.8250
84.126988 79.842 154.8072
84.736607 79.799 154.8719
85.350643 79.767 154.9704
85.969129 79.746 155.0270
86.592097 79.730 154.9933
87.219579 79.709 154.8762
87.851608 79.680 154.7241
88.488217 79.644 154.5916
89.129439 79.607 154.5076
89.775308 79.576 154.4607
90.425856 79.555 154.4085
91.081119 79.542 154.3055
91.741131 79.527 154.1357
92.405925 79.505 153.9274
93.075536 79.472 153.7394
93.750000 79.430 153.6277
94.429351 79.389 153.6124
95.113625 79.357 153.6627
