* Measurement data measured by REW V5.31.3
* Source: Headset (CX31993 HIFI AUDIO), MICROPHONE (Master Volume), R, volume: 0.250
* Format: 256k Log Swept Sine, 1 sweep at -12.0 dBFS with no timing reference
* Dated: 03 3, 25 11:26:15 AM
* REW Settings:
*  C-weighting compensation: Off
*  Target level: 75.0 dB
* Note: ; 
* Measurement: SGOR Luna 400 R
* Smoothing: 1/12 octave
* Frequency Step: 96 ppo
* Start Frequency: 0.36621094 Hz
*
* Freq(Hz) SPL(dB) Phase(degrees)
0.366211 36.719 147.4232
0.368865 36.718 147.3610
0.371538 36.718 147.2682
0.374230 36.717 147.1522
0.376942 36.716 147.0196
0.379673 36.715 146.8750
0.382424 36.714 146.7216
0.385196 36.713 146.5613
0.387987 36.712 146.3952
0.390798 36.710 146.2237
0.393630 36.709 146.0473
0.396483 36.708 145.8660
0.399356 36.707 145.6798
0.402250 36.706 145.4888
0.405165 36.705 145.2928
0.408101 36.703 145.0919
0.411058 36.702 144.8859
0.414037 36.701 144.6748
0.417037 36.700 144.4584
0.420059 36.699 144.2368
0.423103 36.697 144.0099
0.426169 36.696 143.7775
0.429257 36.695 143.5396
0.432368 36.694 143.2961
0.435501 36.692 143.0469
0.438656 36.691 142.7920
0.441835 36.690 142.5313
0.445037 36.688 142.2646
0.448262 36.687 141.9920
0.451510 36.686 141.7133
0.454782 36.684 141.4284
0.458077 36.683 141.1373
0.461397 36.682 140.8399
0.464740 36.680 140.5361
0.468108 36.679 140.2258
0.471500 36.678 139.9089
0.474917 36.676 139.5854
0.478358 36.675 139.2552
0.481825 36.673 138.9181
0.485316 36.672 138.5742
0.488833 36.671 138.2233
0.492375 36.669 137.8653
0.495943 36.668 137.5002
0.499537 36.666 137.1280
0.503157 36.665 136.7484
0.506803 36.663 136.3614
0.510475 36.662 135.9671
0.514175 36.660 135.5652
0.517900 36.659 135.1557
0.521653 36.657 134.7385
0.525434 36.656 134.3136
0.529241 36.654 133.8809
0.533076 36.653 133.4403
0.536939 36.651 132.9918
0.540830 36.650 132.5353
0.544749 36.648 132.0707
0.548696 36.646 131.5980
0.552673 36.645 131.1171
0.556677 36.643 130.6279
0.560711 36.641 130.1304
0.564774 36.640 129.6246
0.568867 36.638 129.1104
0.572989 36.636 128.5878
0.577141 36.635 128.0567
0.581324 36.633 127.5170
0.585536 36.631 126.9688
0.589779 36.630 126.4120
0.594053 36.628 125.8466
0.598358 36.626 125.2726
0.602694 36.624 124.6899
0.607061 36.623 124.0985
0.611460 36.621 123.4984
0.615891 36.619 122.8897
0.620354 36.617 122.2722
0.624849 36.615 121.6461
0.629377 36.614 121.0113
0.633938 36.612 120.3678
0.638532 36.610 119.7157
0.643159 36.608 119.0549
0.647819 36.606 118.3855
0.652514 36.604 117.7075
0.657242 36.602 117.0210
0.662005 36.600 116.3260
0.666802 36.598 115.6225
0.671634 36.596 114.9106
0.676501 36.594 114.1903
0.681403 36.593 113.4618
0.686341 36.591 112.7250
0.691314 36.589 111.9800
0.696324 36.587 111.2269
0.701370 36.586 110.4658
0.706452 36.585 109.6966
0.711571 36.585 108.9196
0.716728 36.587 108.1346
0.721921 36.592 107.3417
0.727153 36.601 106.5409
0.732422 36.614 105.7321
0.737729 36.634 104.9154
0.743075 36.660 104.0908
0.748460 36.691 103.2585
0.753883 36.725 102.4186
0.759346 36.764 101.5714
0.764849 36.804 100.7175
0.770391 36.847 99.8570
0.775974 36.893 98.9904
0.781597 36.940 98.1183
0.787261 36.990 97.2410
0.792966 37.041 96.3589
0.798712 37.094 95.4727
0.804500 37.150 94.5826
0.810329 37.207 93.6893
0.816201 37.266 92.7931
0.822116 37.327 91.8946
0.828073 37.390 90.9943
0.834074 37.455 90.0925
0.840118 37.521 89.1898
0.846206 37.590 88.2866
0.852338 37.660 87.3834
0.858514 37.733 86.4806
0.864735 37.807 85.5786
0.871001 37.882 84.6778
0.877313 37.960 83.7786
0.883670 38.039 82.8815
0.890074 38.120 81.9868
0.896524 38.203 81.0947
0.903020 38.287 80.2058
0.909564 38.373 79.3201
0.916155 38.461 78.4382
0.922794 38.550 77.5602
0.929481 38.641 76.6863
0.936216 38.733 75.8169
0.943000 38.826 74.9520
0.949834 38.921 74.0920
0.956717 39.018 73.2370
0.963649 39.115 72.3871
0.970632 39.214 71.5425
0.977666 39.314 70.7032
0.984750 39.415 69.8694
0.991886 39.517 69.0411
0.999074 39.620 68.2185
1.006314 39.725 67.4014
1.013606 39.829 66.5900
1.020951 39.935 65.7843
1.028349 40.042 64.9842
1.035801 40.149 64.1897
1.043307 40.256 63.4009
1.050867 40.364 62.6176
1.058482 40.473 61.8399
1.066152 40.581 61.0678
1.073878 40.691 60.3013
1.081660 40.800 59.5407
1.089498 40.910 58.7862
1.097393 41.021 58.0382
1.105345 41.133 57.2972
1.113355 41.247 56.5639
1.121423 41.362 55.8386
1.129549 41.479 55.1217
1.137734 41.598 54.4132
1.145979 41.719 53.7133
1.154283 41.842 53.0217
1.162647 41.967 52.3384
1.171072 42.094 51.6634
1.179558 42.223 50.9962
1.188106 42.353 50.3369
1.196715 42.486 49.6851
1.205387 42.620 49.0408
1.214122 42.757 48.4036
1.222920 42.894 47.7735
1.231782 43.034 47.1501
1.240708 43.175 46.5334
1.249699 43.317 45.9230
1.258754 43.461 45.3188
1.267876 43.606 44.7205
1.277063 43.753 44.1281
1.286318 43.900 43.5412
1.295639 44.049 42.9597
1.305027 44.199 42.3834
1.314484 44.349 41.8120
1.324009 44.501 41.2455
1.333604 44.653 40.6835
1.343268 44.805 40.1260
1.353002 44.958 39.5727
1.362806 45.112 39.0235
1.372681 45.265 38.4783
1.382628 45.419 37.9367
1.392647 45.573 37.3988
1.402739 45.726 36.8645
1.412904 45.879 36.3335
1.423142 46.032 35.8061
1.433455 46.185 35.2824
1.443843 46.337 34.7627
1.454305 46.488 34.2475
1.464844 46.639 33.7376
1.475459 46.790 33.2340
1.486150 46.941 32.7373
1.496920 47.092 32.2481
1.507767 47.243 31.7665
1.518693 47.394 31.2924
1.529698 47.545 30.8255
1.540783 47.697 30.3652
1.551948 47.849 29.9111
1.563194 48.001 29.4625
1.574521 48.154 29.0188
1.585931 48.307 28.5795
1.597423 48.460 28.1439
1.608999 48.614 27.7114
1.620658 48.768 27.2815
1.632402 48.922 26.8536
1.644232 49.076 26.4271
1.656146 49.231 26.0015
1.668147 49.385 25.5763
1.680235 49.540 25.1509
1.692411 49.696 24.7250
1.704675 49.851 24.2978
1.717028 50.007 23.8692
1.729470 50.163 23.4385
1.742003 50.319 23.0054
1.754626 50.475 22.5695
1.767341 50.632 22.1307
1.780147 50.788 21.6887
1.793047 50.945 21.2436
1.806040 51.102 20.7958
1.819128 51.259 20.3458
1.832310 51.416 19.8947
1.845587 51.573 19.4437
1.858961 51.730 18.9938
1.872432 51.887 18.5458
1.886001 52.044 18.1003
1.899667 52.201 17.6573
1.913433 52.358 17.2168
1.927299 52.515 16.7784
1.941265 52.672 16.3417
1.955332 52.828 15.9064
1.969501 52.985 15.4720
1.983773 53.142 15.0381
1.998148 53.298 14.6040
2.012627 53.455 14.1694
2.027212 53.611 13.7338
2.041902 53.768 13.2966
2.056698 53.925 12.8575
2.071602 54.081 12.4159
2.086614 54.238 11.9714
2.101734 54.394 11.5236
2.116964 54.551 11.0721
2.132304 54.708 10.6166
2.147756 54.865 10.1571
2.163320 55.022 9.6935
2.178996 55.178 9.2263
2.194786 55.335 8.7559
2.210690 55.492 8.2834
2.226710 55.649 7.8096
2.242845 55.805 7.3352
2.259098 55.961 6.8608
2.275468 56.117 6.3864
2.291957 56.273 5.9121
2.308566 56.429 5.4377
2.325295 56.584 4.9628
2.342145 56.739 4.4871
2.359117 56.894 4.0103
2.376212 57.048 3.5319
2.393431 57.203 3.0515
2.410775 57.357 2.5685
2.428244 57.511 2.0827
2.445840 57.664 1.5934
2.463564 57.818 1.1003
2.481416 57.971 0.6030
2.499397 58.124 0.1012
2.517509 58.277 -0.4054
2.535752 58.430 -0.9168
2.554127 58.582 -1.4328
2.572635 58.734 -1.9530
2.591277 58.886 -2.4767
2.610055 59.037 -3.0035
2.628968 59.188 -3.5328
2.648019 59.339 -4.0644
2.667208 59.489 -4.5979
2.686535 59.638 -5.1334
2.706003 59.787 -5.6710
2.725612 59.935 -6.2105
2.745363 60.083 -6.7523
2.765257 60.231 -7.2966
2.785295 60.378 -7.8434
2.805478 60.524 -8.3932
2.825808 60.670 -8.9461
2.846285 60.816 -9.5026
2.866910 60.961 -10.0629
2.887685 61.105 -10.6272
2.908611 61.249 -11.1959
2.929688 61.393 -11.7691
2.950917 61.535 -12.3467
2.972301 61.677 -12.9286
2.993839 61.819 -13.5145
3.015534 61.959 -14.1040
3.037386 62.099 -14.6969
3.059396 62.238 -15.2926
3.081565 62.377 -15.8908
3.103896 62.514 -16.4913
3.126388 62.651 -17.0938
3.149043 62.787 -17.6980
3.171862 62.922 -18.3040
3.194847 63.057 -18.9116
3.217998 63.191 -19.5209
3.241317 63.324 -20.1322
3.264805 63.456 -20.7458
3.288463 63.588 -21.3621
3.312293 63.718 -21.9816
3.336295 63.848 -22.6046
3.360471 63.976 -23.2312
3.384822 64.104 -23.8612
3.409350 64.231 -24.4943
3.434056 64.356 -25.1298
3.458940 64.481 -25.7672
3.484005 64.604 -26.4059
3.509252 64.727 -27.0453
3.534681 64.849 -27.6848
3.560295 64.970 -28.3242
3.586094 65.089 -28.9633
3.612081 65.208 -29.6021
3.638255 65.326 -30.2410
3.664620 65.443 -30.8805
3.691175 65.559 -31.5214
3.717923 65.674 -32.1641
3.744864 65.787 -32.8088
3.772001 65.900 -33.4553
3.799335 66.011 -34.1031
3.826866 66.121 -34.7514
3.854597 66.230 -35.3995
3.882529 66.338 -36.0465
3.910664 66.445 -36.6917
3.939002 66.551 -37.3345
3.967546 66.656 -37.9747
3.996296 66.761 -38.6122
4.025255 66.864 -39.2473
4.054423 66.966 -39.8809
4.083804 67.067 -40.5134
4.113396 67.167 -41.1452
4.143204 67.265 -41.7763
4.173227 67.363 -42.4064
4.203468 67.459 -43.0348
4.233928 67.555 -43.6610
4.264609 67.650 -44.2840
4.295512 67.743 -44.9034
4.326639 67.836 -45.5185
4.357992 67.929 -46.1292
4.389572 68.020 -46.7357
4.421380 68.111 -47.3382
4.453419 68.200 -47.9372
4.485691 68.289 -48.5332
4.518196 68.377 -49.1263
4.550936 68.464 -49.7163
4.583914 68.551 -50.3029
4.617131 68.636 -50.8858
4.650589 68.722 -51.4645
4.684289 68.806 -52.0387
4.718233 68.890 -52.6080
4.752424 68.974 -53.1725
4.786862 69.057 -53.7323
4.821549 69.140 -54.2877
4.856488 69.222 -54.8391
4.891680 69.304 -55.3865
4.927127 69.385 -55.9303
4.962831 69.466 -56.4705
4.998794 69.547 -57.0071
5.035017 69.627 -57.5402
5.071503 69.707 -58.0697
5.108253 69.787 -58.5957
5.145270 69.867 -59.1181
5.182555 69.947 -59.6373
5.220110 70.026 -60.1532
5.257937 70.106 -60.6663
5.296038 70.185 -61.1768
5.334415 70.264 -61.6850
5.373071 70.343 -62.1912
5.412006 70.421 -62.6957
5.451224 70.500 -63.1987
5.490725 70.578 -63.7004
5.530514 70.657 -64.2008
5.570590 70.735 -64.7001
5.610957 70.813 -65.1984
5.651616 70.891 -65.6959
5.692570 70.969 -66.1927
5.733821 71.046 -66.6890
5.775370 71.123 -67.1851
5.817221 71.200 -67.6811
5.859375 71.277 -68.1773
5.901834 71.353 -68.6738
5.944602 71.429 -69.1706
5.987679 71.504 -69.6677
6.031068 71.580 -70.1651
6.074771 71.654 -70.6624
6.118792 71.728 -71.1598
6.163131 71.802 -71.6571
6.207792 71.875 -72.1543
6.252776 71.948 -72.6516
6.298086 72.019 -73.1489
6.343725 72.091 -73.6462
6.389694 72.161 -74.1432
6.435996 72.231 -74.6397
6.482634 72.300 -75.1353
6.529610 72.369 -75.6296
6.576926 72.437 -76.1226
6.624585 72.504 -76.6141
6.672590 72.571 -77.1042
6.720942 72.637 -77.5929
6.769645 72.702 -78.0798
6.818700 72.766 -78.5649
6.868111 72.830 -79.0478
6.917881 72.894 -79.5282
6.968010 72.957 -80.0062
7.018504 73.019 -80.4816
7.069362 73.081 -80.9546
7.120590 73.142 -81.4252
7.172189 73.203 -81.8934
7.224161 73.263 -82.3594
7.276511 73.323 -82.8230
7.329239 73.383 -83.2844
7.382350 73.442 -83.7437
7.435845 73.501 -84.2009
7.489729 73.560 -84.6563
7.544002 73.618 -85.1101
7.598669 73.677 -85.5626
7.653732 73.734 -86.0139
7.709194 73.792 -86.4642
7.765058 73.849 -86.9137
7.821327 73.906 -87.3623
7.878004 73.962 -87.8102
7.935091 74.018 -88.2575
7.992592 74.074 -88.7041
8.050510 74.129 -89.1501
8.108847 74.184 -89.5955
8.167607 74.238 -90.0403
8.226793 74.291 -90.4840
8.286408 74.344 -90.9264
8.346454 74.397 -91.3672
8.406936 74.448 -91.8059
8.467856 74.499 -92.2424
8.529218 74.550 -92.6763
8.591024 74.599 -93.1072
8.653278 74.649 -93.5348
8.715983 74.698 -93.9583
8.779143 74.746 -94.3775
8.842760 74.794 -94.7921
8.906839 74.843 -95.2019
8.971381 74.891 -95.6070
9.036392 74.939 -96.0075
9.101873 74.987 -96.4035
9.167829 75.036 -96.7953
9.234263 75.085 -97.1832
9.301178 75.136 -97.5680
9.368578 75.186 -97.9509
9.436467 75.238 -98.3331
9.504847 75.292 -98.7160
9.573723 75.346 -99.1008
9.643099 75.401 -99.4889
9.712976 75.458 -99.8821
9.783361 75.516 -100.2825
9.854255 75.575 -100.6918
9.925663 75.634 -101.1120
9.997588 75.695 -101.5443
10.070035 75.756 -101.9902
10.143007 75.817 -102.4508
10.216507 75.877 -102.9274
10.290540 75.937 -103.4209
10.365109 75.996 -103.9313
10.440219 76.054 -104.4584
10.515873 76.110 -105.0014
10.592076 76.163 -105.5594
10.668830 76.214 -106.1310
10.746141 76.261 -106.7144
10.824012 76.305 -107.3072
10.902447 76.345 -107.9062
10.981451 76.381 -108.5080
11.061027 76.413 -109.1096
11.141180 76.441 -109.7075
11.221913 76.465 -110.2976
11.303232 76.484 -110.8757
11.385140 76.500 -111.4379
11.467641 76.512 -111.9806
11.550741 76.521 -112.5008
11.634442 76.528 -112.9953
11.718750 76.533 -113.4613
11.803669 76.537 -113.8973
11.889203 76.540 -114.3022
11.975357 76.544 -114.6764
12.062136 76.550 -115.0205
12.149543 76.558 -115.3365
12.237583 76.569 -115.6268
12.326262 76.583 -115.8956
12.415583 76.601 -116.1474
12.505552 76.624 -116.3874
12.596172 76.651 -116.6205
12.687449 76.683 -116.8526
12.779387 76.720 -117.0891
12.871992 76.760 -117.3353
12.965268 76.804 -117.5953
13.059220 76.851 -117.8726
13.153852 76.900 -118.1699
13.249170 76.951 -118.4889
13.345179 77.002 -118.8299
13.441884 77.054 -119.1921
13.539289 77.104 -119.5742
13.637401 77.153 -119.9737
13.736223 77.201 -120.3879
13.835761 77.247 -120.8134
13.936021 77.290 -121.2466
14.037007 77.332 -121.6843
14.138725 77.372 -122.1236
14.241180 77.410 -122.5620
14.344377 77.447 -122.9977
14.448323 77.484 -123.4297
14.553021 77.520 -123.8582
14.658478 77.556 -124.2838
14.764700 77.593 -124.7081
14.871691 77.631 -125.1333
14.979457 77.669 -125.5621
15.088005 77.708 -125.9971
15.197339 77.747 -126.4408
15.307465 77.786 -126.8954
15.418389 77.825 -127.3622
15.530117 77.863 -127.8419
15.642655 77.899 -128.3339
15.756008 77.933 -128.8366
15.870182 77.964 -129.3475
15.985184 77.992 -129.8632
16.101019 78.017 -130.3794
16.217694 78.039 -130.8917
16.335214 78.058 -131.3958
16.453586 78.073 -131.8872
16.572815 78.087 -132.3626
16.692909 78.099 -132.8195
16.813872 78.111 -133.2569
16.935713 78.122 -133.6750
17.058436 78.135 -134.0755
17.182048 78.149 -134.4619
17.306556 78.166 -134.8384
17.431967 78.185 -135.2100
17.558286 78.207 -135.5821
17.685521 78.230 -135.9599
17.813677 78.256 -136.3474
17.942762 78.282 -136.7475
18.072783 78.308 -137.1617
18.203746 78.333 -137.5895
18.335658 78.356 -138.0285
18.468526 78.377 -138.4750
18.602356 78.395 -138.9239
18.737156 78.410 -139.3695
18.872934 78.423 -139.8061
19.009695 78.433 -140.2285
19.147447 78.442 -140.6328
19.286197 78.451 -141.0170
19.425953 78.461 -141.3810
19.566721 78.472 -141.7272
19.708510 78.486 -142.0601
19.851326 78.503 -142.3858
19.995177 78.523 -142.7114
20.140070 78.547 -143.0443
20.286013 78.573 -143.3910
20.433014 78.601 -143.7563
20.581080 78.629 -144.1428
20.730219 78.656 -144.5501
20.880439 78.680 -144.9750
21.031747 78.701 -145.4116
21.184152 78.718 -145.8522
21.337661 78.730 -146.2877
21.492282 78.739 -146.7094
21.648024 78.745 -147.1092
21.804895 78.749 -147.4817
21.962902 78.753 -147.8242
22.122054 78.758 -148.1379
22.282360 78.767 -148.4275
22.443827 78.779 -148.7011
22.606464 78.797 -148.9690
22.770280 78.819 -149.2422
22.935283 78.846 -149.5311
23.101481 78.875 -149.8440
23.268884 78.905 -150.1855
23.437500 78.934 -150.5565
23.607338 78.961 -150.9534
23.778406 78.984 -151.3696
23.950714 79.002 -151.7957
24.124271 79.016 -152.2217
24.299086 79.025 -152.6382
24.475167 79.032 -153.0380
24.652524 79.036 -153.4173
24.831166 79.041 -153.7759
25.011103 79.046 -154.1176
25.192344 79.054 -154.4488
25.374898 79.064 -154.7774
25.558775 79.075 -155.1111
25.743984 79.088 -155.4555
25.930536 79.101 -155.8132
26.118439 79.112 -156.1831
26.307704 79.121 -156.5608
26.498341 79.127 -156.9397
26.690359 79.131 -157.3129
26.883768 79.133 -157.6743
27.078579 79.134 -158.0211
27.274801 79.136 -158.3537
27.472446 79.140 -158.6766
27.671522 79.147 -158.9972
27.872042 79.156 -159.3241
28.074014 79.167 -159.6648
28.277450 79.179 -160.0242
28.482360 79.189 -160.4028
28.688755 79.197 -160.7966
28.896645 79.202 -161.1978
29.106042 79.202 -161.5966
29.316957 79.200 -161.9831
29.529400 79.195 -162.3500
29.743382 79.190 -162.6936
29.958915 79.186 -163.0151
30.176009 79.183 -163.3195
30.394677 79.184 -163.6145
30.614929 79.187 -163.9080
30.836778 79.193 -164.2062
31.060234 79.199 -164.5120
31.285309 79.205 -164.8250
31.512015 79.211 -165.1418
31.740364 79.216 -165.4582
31.970368 79.220 -165.7711
32.202039 79.225 -166.0802
32.435388 79.232 -166.3883
32.670428 79.239 -166.7012
32.907171 79.247 -167.0255
33.145630 79.255 -167.3667
33.385817 79.262 -167.7267
33.627745 79.266 -168.1028
33.871425 79.265 -168.4873
34.116871 79.259 -168.8699
34.364096 79.249 -169.2391
34.613113 79.235 -169.5857
34.863934 79.219 -169.9048
35.116572 79.204 -170.1969
35.371041 79.190 -170.4680
35.627354 79.180 -170.7271
35.885525 79.171 -170.9842
36.145566 79.165 -171.2473
36.407492 79.160 -171.5206
36.671316 79.155 -171.8044
36.937051 79.150 -172.0956
37.204712 79.143 -172.3900
37.474313 79.137 -172.6843
37.745867 79.130 -172.9774
38.019389 79.124 -173.2708
38.294893 79.119 -173.5679
38.572394 79.114 -173.8718
38.851905 79.109 -174.1844
39.133442 79.104 -174.5047
39.417019 79.097 -174.8295
39.702651 79.089 -175.1544
39.990353 79.079 -175.4750
40.280140 79.069 -175.7892
40.572026 79.058 -176.0968
40.866028 79.048 -176.3995
41.162160 79.038 -176.6994
41.460438 79.027 -176.9981
41.760877 79.016 -177.2952
42.063494 79.004 -177.5893
42.368303 78.992 -177.8787
42.675322 78.979 -178.1625
42.984565 78.965 -178.4411
43.296048 78.952 -178.7158
43.609789 78.938 -178.9875
43.925804 78.924 -179.2559
44.244108 78.909 -179.5188
44.564719 78.894 -179.7735
44.887654 78.879 179.9815
45.212928 78.866 179.7450
45.540560 78.855 179.5118
45.870565 78.846 179.2746
46.202962 78.839 179.0256
46.537768 78.834 178.7601
46.875000 78.828 178.4776
47.214676 78.821 178.1819
47.556813 78.813 177.8795
47.901429 78.803 177.5761
48.248542 78.792 177.2753
48.598171 78.781 176.9774
48.950334 78.769 176.6810
49.305048 78.758 176.3848
49.662333 78.745 176.0886
50.022206 78.732 175.7937
50.384688 78.719 175.5020
50.749796 78.705 175.2147
51.117550 78.690 174.9316
51.487969 78.676 174.6518
51.861072 78.661 174.3743
52.236879 78.646 174.0984
52.615409 78.631 173.8239
52.996681 78.615 173.5504
53.380717 78.599 173.2782
53.767536 78.582 173.0087
54.157158 78.564 172.7452
54.549603 78.546 172.4908
54.944892 78.527 172.2469
55.343045 78.509 172.0103
55.744084 78.492 171.7743
56.148028 78.475 171.5320
56.554900 78.457 171.2800
56.964720 78.437 171.0202
57.377510 78.412 170.7581
57.793291 78.384 170.4999
58.212085 78.353 170.2522
58.633914 78.317 170.0214
59.058799 78.280 169.8137
59.486764 78.243 169.6306
59.917829 78.209 169.4630
60.352019 78.180 169.2911
60.789354 78.156 169.0922
61.229859 78.135 168.8543
61.673556 78.113 168.5834
62.120468 78.090 168.2998
62.570618 78.068 168.0244
63.024031 78.052 167.7651
63.480729 78.043 167.5146
63.940736 78.044 167.2566
64.404077 78.053 166.9785
64.870776 78.067 166.6799
65.340856 78.084 166.3732
65.814343 78.105 166.0725
66.291261 78.129 165.7766
66.771635 78.158 165.4587
67.255489 78.185 165.0800
67.742850 78.201 164.6244
68.233743 78.192 164.1295
68.728193 78.154 163.6815
69.226226 78.090 163.3698
69.727867 78.015 163.2338
70.233144 77.943 163.2408
70.742083 77.880 163.3142
71.254709 77.827 163.3821
71.771050 77.781 163.4057
72.291132 77.737 163.3731
72.814984 77.696 163.2839
73.342631 77.657 163.1407
73.874102 77.618 162.9519
74.409424 77.582 162.7307
74.948626 77.548 162.4901
75.491734 77.518 162.2371
76.038779 77.492 161.9736
76.589787 77.469 161.7007
77.144788 77.447 161.4247
77.703811 77.424 161.1581
78.266885 77.400 160.9154
78.834039 77.373 160.7049
79.405303 77.346 160.5253
79.980706 77.319 160.3678
80.560280 77.292 160.2204
81.144053 77.265 160.0715
81.732056 77.237 159.9122
82.324320 77.208 159.7378
82.920876 77.178 159.5493
83.521755 77.146 159.3517
84.126988 77.113 159.1523
84.736607 77.080 158.9579
85.350643 77.047 158.7737
85.969129 77.014 158.6010
86.592097 76.983 158.4382
87.219579 76.952 158.2815
87.851608 76.921 158.1271
88.488217 76.889 157.9731
89.129439 76.856 157.8190
89.775308 76.820 157.6649
90.425856 76.783 157.5091
91.081119 76.745 157.3502
91.741131 76.707 157.1891
92.405925 76.670 157.0273
93.075536 76.635 156.8610
