* Measurement data measured by REW V5.31.3
* Source: Headset (CX31993 HIFI AUDIO), MICROPHONE (Master Volume), R, volume: 0.250
* Format: 256k Log Swept Sine, 1 sweep at -12.0 dBFS with no timing reference
* Dated: 03 3, 25 11:35:07 AM
* REW Settings:
*  C-weighting compensation: Off
*  Target level: 75.0 dB
* Note: ; 
* Measurement: SGOR Luna nb 400 R
* Smoothing: 1/12 octave
* Frequency Step: 96 ppo
* Start Frequency: 0.36621094 Hz
*
* Freq(Hz) SPL(dB) Phase(degrees)
0.366211 36.022 64.8331
0.368865 36.039 64.7914
0.371538 36.065 64.7295
0.374230 36.096 64.6526
0.376942 36.132 64.5654
0.379673 36.170 64.4712
0.382424 36.210 64.3720
0.385196 36.251 64.2694
0.387987 36.292 64.1641
0.390798 36.334 64.0566
0.393630 36.377 63.9470
0.396483 36.420 63.8356
0.399356 36.463 63.7224
0.402250 36.506 63.6074
0.405165 36.550 63.4908
0.408101 36.594 63.3724
0.411058 36.639 63.2524
0.414037 36.684 63.1307
0.417037 36.729 63.0074
0.420059 36.774 62.8825
0.423103 36.820 62.7560
0.426169 36.866 62.6280
0.429257 36.912 62.4984
0.432368 36.959 62.3672
0.435501 37.006 62.2346
0.438656 37.054 62.1005
0.441835 37.101 61.9649
0.445037 37.150 61.8278
0.448262 37.198 61.6894
0.451510 37.247 61.5495
0.454782 37.296 61.4083
0.458077 37.346 61.2658
0.461397 37.396 61.1218
0.464740 37.446 60.9766
0.468108 37.496 60.8301
0.471500 37.547 60.6824
0.474917 37.599 60.5333
0.478358 37.651 60.3831
0.481825 37.703 60.2317
0.485316 37.755 60.0790
0.488833 37.808 59.9253
0.492375 37.861 59.7703
0.495943 37.915 59.6143
0.499537 37.969 59.4571
0.503157 38.023 59.2988
0.506803 38.078 59.1395
0.510475 38.133 58.9790
0.514175 38.189 58.8176
0.517900 38.245 58.6551
0.521653 38.301 58.4916
0.525434 38.358 58.3270
0.529241 38.416 58.1615
0.533076 38.473 57.9949
0.536939 38.531 57.8274
0.540830 38.590 57.6588
0.544749 38.649 57.4893
0.548696 38.708 57.3188
0.552673 38.768 57.1474
0.556677 38.828 56.9749
0.560711 38.889 56.8015
0.564774 38.950 56.6270
0.568867 39.011 56.4516
0.572989 39.073 56.2752
0.577141 39.136 56.0977
0.581324 39.199 55.9193
0.585536 39.262 55.7398
0.589779 39.326 55.5592
0.594053 39.390 55.3776
0.598358 39.455 55.1949
0.602694 39.520 55.0110
0.607061 39.586 54.8260
0.611460 39.652 54.6399
0.615891 39.718 54.4525
0.620354 39.785 54.2639
0.624849 39.853 54.0740
0.629377 39.921 53.8828
0.633938 39.990 53.6903
0.638532 40.059 53.4963
0.643159 40.128 53.3010
0.647819 40.199 53.1041
0.652514 40.269 52.9056
0.657242 40.340 52.7056
0.662005 40.412 52.5038
0.666802 40.484 52.3003
0.671634 40.557 52.0950
0.676501 40.630 51.8879
0.681403 40.703 51.6787
0.686341 40.778 51.4675
0.691314 40.852 51.2541
0.696324 40.927 51.0385
0.701370 41.003 50.8206
0.706452 41.078 50.6002
0.711571 41.154 50.3772
0.716728 41.229 50.1514
0.721921 41.302 49.9228
0.727153 41.374 49.6911
0.732422 41.443 49.4561
0.737729 41.509 49.2177
0.743075 41.572 48.9758
0.748460 41.633 48.7301
0.753883 41.692 48.4808
0.759346 41.749 48.2279
0.764849 41.806 47.9713
0.770391 41.862 47.7113
0.775974 41.917 47.4479
0.781597 41.972 47.1812
0.787261 42.026 46.9113
0.792966 42.080 46.6383
0.798712 42.133 46.3623
0.804500 42.186 46.0834
0.810329 42.238 45.8018
0.816201 42.290 45.5176
0.822116 42.341 45.2307
0.828073 42.392 44.9415
0.834074 42.442 44.6499
0.840118 42.492 44.3560
0.846206 42.542 44.0601
0.852338 42.590 43.7620
0.858514 42.639 43.4620
0.864735 42.687 43.1602
0.871001 42.734 42.8566
0.877313 42.782 42.5513
0.883670 42.828 42.2444
0.890074 42.875 41.9360
0.896524 42.920 41.6261
0.903020 42.966 41.3149
0.909564 43.011 41.0024
0.916155 43.055 40.6887
0.922794 43.100 40.3738
0.929481 43.144 40.0577
0.936216 43.187 39.7407
0.943000 43.230 39.4226
0.949834 43.273 39.1036
0.956717 43.316 38.7837
0.963649 43.358 38.4629
0.970632 43.400 38.1413
0.977666 43.442 37.8188
0.984750 43.483 37.4956
0.991886 43.525 37.1715
0.999074 43.566 36.8467
1.006314 43.607 36.5212
1.013606 43.647 36.1948
1.020951 43.688 35.8677
1.028349 43.729 35.5398
1.035801 43.769 35.2110
1.043307 43.810 34.8813
1.050867 43.850 34.5507
1.058482 43.891 34.2190
1.066152 43.931 33.8860
1.073878 43.972 33.5514
1.081660 44.013 33.2148
1.089498 44.053 32.8756
1.097393 44.094 32.5329
1.105345 44.134 32.1857
1.113355 44.174 31.8332
1.121423 44.214 31.4746
1.129549 44.253 31.1093
1.137734 44.291 30.7371
1.145979 44.329 30.3578
1.154283 44.367 29.9716
1.162647 44.404 29.5785
1.171072 44.440 29.1787
1.179558 44.476 28.7724
1.188106 44.511 28.3599
1.196715 44.546 27.9413
1.205387 44.580 27.5171
1.214122 44.613 27.0873
1.222920 44.646 26.6524
1.231782 44.678 26.2126
1.240708 44.709 25.7682
1.249699 44.740 25.3196
1.258754 44.770 24.8671
1.267876 44.800 24.4112
1.277063 44.829 23.9521
1.286318 44.857 23.4902
1.295639 44.885 23.0260
1.305027 44.913 22.5599
1.314484 44.939 22.0924
1.324009 44.965 21.6238
1.333604 44.991 21.1546
1.343268 45.015 20.6854
1.353002 45.040 20.2166
1.362806 45.063 19.7488
1.372681 45.087 19.2825
1.382628 45.109 18.8182
1.392647 45.131 18.3564
1.402739 45.153 17.8977
1.412904 45.173 17.4425
1.423142 45.194 16.9910
1.433455 45.214 16.5435
1.443843 45.233 16.0996
1.454305 45.251 15.6587
1.464844 45.269 15.2198
1.475459 45.287 14.7813
1.486150 45.303 14.3416
1.496920 45.319 13.8996
1.507767 45.333 13.4542
1.518693 45.347 13.0051
1.529698 45.360 12.5518
1.540783 45.372 12.0946
1.551948 45.383 11.6334
1.563194 45.393 11.1685
1.574521 45.402 10.7003
1.585931 45.410 10.2289
1.597423 45.417 9.7549
1.608999 45.423 9.2785
1.620658 45.428 8.8002
1.632402 45.432 8.3205
1.644232 45.435 7.8397
1.656146 45.437 7.3585
1.668147 45.437 6.8772
1.680235 45.437 6.3965
1.692411 45.436 5.9170
1.704675 45.433 5.4392
1.717028 45.430 4.9637
1.729470 45.425 4.4912
1.742003 45.419 4.0223
1.754626 45.412 3.5577
1.767341 45.404 3.0979
1.780147 45.395 2.6433
1.793047 45.385 2.1942
1.806040 45.373 1.7505
1.819128 45.360 1.3115
1.832310 45.346 0.8761
1.845587 45.330 0.4429
1.858961 45.313 0.0101
1.872432 45.294 -0.4232
1.886001 45.273 -0.8581
1.899667 45.251 -1.2948
1.913433 45.227 -1.7334
1.927299 45.201 -2.1735
1.941265 45.174 -2.6147
1.955332 45.145 -3.0564
1.969501 45.114 -3.4979
1.983773 45.082 -3.9383
1.998148 45.049 -4.3766
2.012627 45.014 -4.8119
2.027212 44.977 -5.2429
2.041902 44.939 -5.6683
2.056698 44.900 -6.0869
2.071602 44.859 -6.4971
2.086614 44.818 -6.8973
2.101734 44.775 -7.2859
2.116964 44.731 -7.6612
2.132304 44.685 -8.0214
2.147756 44.639 -8.3649
2.163320 44.591 -8.6903
2.178996 44.542 -8.9967
2.194786 44.491 -9.2836
2.210690 44.438 -9.5512
2.226710 44.382 -9.7998
2.242845 44.324 -10.0301
2.259098 44.263 -10.2423
2.275468 44.199 -10.4365
2.291957 44.133 -10.6126
2.308566 44.064 -10.7700
2.325295 43.994 -10.9081
2.342145 43.922 -11.0264
2.359117 43.850 -11.1238
2.376212 43.777 -11.1995
2.393431 43.703 -11.2525
2.410775 43.631 -11.2817
2.428244 43.559 -11.2859
2.445840 43.489 -11.2638
2.463564 43.421 -11.2142
2.481416 43.356 -11.1355
2.499397 43.294 -11.0260
2.517509 43.235 -10.8839
2.535752 43.180 -10.7069
2.554127 43.128 -10.4920
2.572635 43.079 -10.2364
2.591277 43.033 -9.9371
2.610055 42.988 -9.5919
2.628968 42.946 -9.1998
2.648019 42.906 -8.7610
2.667208 42.868 -8.2769
2.686535 42.833 -7.7496
2.706003 42.801 -7.1820
2.725612 42.773 -6.5780
2.745363 42.749 -5.9417
2.765257 42.730 -5.2781
2.785295 42.717 -4.5924
2.805478 42.711 -3.8904
2.825808 42.712 -3.1777
2.846285 42.722 -2.4601
2.866910 42.740 -1.7424
2.887685 42.769 -1.0282
2.908611 42.808 -0.3193
2.929688 42.859 0.3845
2.950917 42.922 1.0850
2.972301 42.996 1.7838
2.993839 43.083 2.4808
3.015534 43.180 3.1737
3.037386 43.289 3.8580
3.059396 43.407 4.5280
3.081565 43.533 5.1773
3.103896 43.668 5.7991
3.126388 43.810 6.3864
3.149043 43.957 6.9331
3.171862 44.109 7.4333
3.194847 44.264 7.8820
3.217998 44.422 8.2753
3.241317 44.583 8.6109
3.264805 44.746 8.8882
3.288463 44.911 9.1085
3.312293 45.079 9.2751
3.336295 45.250 9.3920
3.360471 45.426 9.4629
3.384822 45.606 9.4908
3.409350 45.789 9.4773
3.434056 45.976 9.4236
3.458940 46.166 9.3299
3.484005 46.357 9.1964
3.509252 46.549 9.0229
3.534681 46.741 8.8091
3.560295 46.931 8.5545
3.586094 47.120 8.2588
3.612081 47.306 7.9215
3.638255 47.488 7.5426
3.664620 47.668 7.1225
3.691175 47.845 6.6622
3.717923 48.019 6.1637
3.744864 48.190 5.6297
3.772001 48.359 5.0634
3.799335 48.526 4.4681
3.826866 48.691 3.8474
3.854597 48.854 3.2044
3.882529 49.014 2.5417
3.910664 49.171 1.8616
3.939002 49.325 1.1656
3.967546 49.477 0.4542
3.996296 49.625 -0.2728
4.025255 49.769 -1.0165
4.054423 49.911 -1.7786
4.083804 50.049 -2.5598
4.113396 50.183 -3.3599
4.143204 50.314 -4.1772
4.173227 50.441 -5.0090
4.203468 50.566 -5.8519
4.233928 50.687 -6.7021
4.264609 50.806 -7.5562
4.295512 50.921 -8.4113
4.326639 51.034 -9.2655
4.357992 51.144 -10.1180
4.389572 51.252 -10.9695
4.421380 51.356 -11.8215
4.453419 51.458 -12.6759
4.485691 51.556 -13.5335
4.518196 51.652 -14.3939
4.550936 51.744 -15.2555
4.583914 51.835 -16.1157
4.617131 51.923 -16.9716
4.650589 52.009 -17.8202
4.684289 52.094 -18.6588
4.718233 52.177 -19.4857
4.752424 52.259 -20.3000
4.786862 52.339 -21.1022
4.821549 52.418 -21.8935
4.856488 52.496 -22.6751
4.891680 52.572 -23.4478
4.927127 52.647 -24.2118
4.962831 52.721 -24.9669
4.998794 52.796 -25.7122
5.035017 52.870 -26.4469
5.071503 52.945 -27.1698
5.108253 53.020 -27.8799
5.145270 53.097 -28.5769
5.182555 53.174 -29.2608
5.220110 53.252 -29.9326
5.257937 53.330 -30.5940
5.296038 53.410 -31.2472
5.334415 53.491 -31.8943
5.373071 53.574 -32.5375
5.412006 53.658 -33.1785
5.451224 53.744 -33.8181
5.490725 53.832 -34.4569
5.530514 53.923 -35.0948
5.570590 54.016 -35.7319
5.610957 54.110 -36.3692
5.651616 54.207 -37.0086
5.692570 54.305 -37.6527
5.733821 54.405 -38.3044
5.775370 54.506 -38.9666
5.817221 54.608 -39.6413
5.859375 54.711 -40.3298
5.901834 54.815 -41.0325
5.944602 54.920 -41.7491
5.987679 55.026 -42.4792
6.031068 55.133 -43.2229
6.074771 55.239 -43.9806
6.118792 55.344 -44.7531
6.163131 55.448 -45.5417
6.207792 55.551 -46.3473
6.252776 55.652 -47.1706
6.298086 55.751 -48.0114
6.343725 55.848 -48.8682
6.389694 55.942 -49.7389
6.435996 56.034 -50.6205
6.482634 56.123 -51.5107
6.529610 56.208 -52.4078
6.576926 56.289 -53.3110
6.624585 56.366 -54.2201
6.672590 56.439 -55.1346
6.720942 56.507 -56.0525
6.769645 56.571 -56.9701
6.818700 56.630 -57.8830
6.868111 56.685 -58.7865
6.917881 56.735 -59.6769
6.968010 56.779 -60.5520
7.018504 56.819 -61.4106
7.069362 56.854 -62.2512
7.120590 56.885 -63.0713
7.172189 56.912 -63.8668
7.224161 56.934 -64.6329
7.276511 56.953 -65.3648
7.329239 56.970 -66.0593
7.382350 56.983 -66.7141
7.435845 56.994 -67.3285
7.489729 57.004 -67.9015
7.544002 57.012 -68.4323
7.598669 57.021 -68.9192
7.653732 57.031 -69.3607
7.709194 57.043 -69.7558
7.765058 57.057 -70.1047
7.821327 57.075 -70.4095
7.878004 57.096 -70.6739
7.935091 57.122 -70.9027
7.992592 57.153 -71.1008
8.050510 57.191 -71.2725
8.108847 57.236 -71.4216
8.167607 57.288 -71.5530
8.226793 57.346 -71.6728
8.286408 57.412 -71.7889
8.346454 57.485 -71.9095
8.406936 57.563 -72.0416
8.467856 57.649 -72.1906
8.529218 57.739 -72.3602
8.591024 57.835 -72.5542
8.653278 57.935 -72.7765
8.715983 58.037 -73.0308
8.779143 58.141 -73.3200
8.842760 58.246 -73.6453
8.906839 58.351 -74.0061
8.971381 58.455 -74.4005
9.036392 58.558 -74.8257
9.101873 58.658 -75.2791
9.167829 58.754 -75.7580
9.234263 58.847 -76.2592
9.301178 58.936 -76.7786
9.368578 59.020 -77.3108
9.436467 59.099 -77.8500
9.504847 59.174 -78.3907
9.573723 59.245 -78.9286
9.643099 59.311 -79.4600
9.712976 59.373 -79.9810
9.783361 59.433 -80.4876
9.854255 59.490 -80.9761
9.925663 59.545 -81.4442
9.997588 59.599 -81.8909
10.070035 59.653 -82.3169
10.143007 59.709 -82.7240
10.216507 59.766 -83.1144
10.290540 59.826 -83.4910
10.365109 59.889 -83.8582
10.440219 59.955 -84.2220
10.515873 60.026 -84.5896
10.592076 60.101 -84.9687
10.668830 60.180 -85.3664
10.746141 60.263 -85.7891
10.824012 60.349 -86.2438
10.902447 60.436 -86.7373
10.981451 60.525 -87.2756
11.061027 60.614 -87.8628
11.141180 60.700 -88.5012
11.221913 60.784 -89.1915
11.303232 60.863 -89.9334
11.385140 60.935 -90.7256
11.467641 61.000 -91.5647
11.550741 61.055 -92.4450
11.634442 61.100 -93.3587
11.718750 61.132 -94.2975
11.803669 61.151 -95.2524
11.889203 61.156 -96.2125
11.975357 61.147 -97.1646
12.062136 61.122 -98.0942
12.149543 61.083 -98.9869
12.237583 61.028 -99.8277
12.326262 60.958 -100.6002
12.415583 60.875 -101.2864
12.505552 60.781 -101.8688
12.596172 60.676 -102.3315
12.687449 60.565 -102.6591
12.779387 60.450 -102.8380
12.871992 60.336 -102.8572
12.965268 60.226 -102.7108
13.059220 60.127 -102.3995
13.153852 60.044 -101.9312
13.249170 59.981 -101.3209
13.345179 59.944 -100.5923
13.441884 59.936 -99.7784
13.539289 59.961 -98.9190
13.637401 60.019 -98.0568
13.736223 60.109 -97.2351
13.835761 60.230 -96.4961
13.936021 60.377 -95.8766
14.037007 60.546 -95.4048
14.138725 60.731 -95.1002
14.241180 60.925 -94.9738
14.344377 61.125 -95.0288
14.448323 61.323 -95.2602
14.553021 61.517 -95.6571
14.658478 61.700 -96.2046
14.764700 61.872 -96.8847
14.871691 62.027 -97.6770
14.979457 62.166 -98.5593
15.088005 62.286 -99.5093
15.197339 62.386 -100.5049
15.307465 62.468 -101.5239
15.418389 62.530 -102.5445
15.530117 62.575 -103.5467
15.642655 62.602 -104.5116
15.756008 62.615 -105.4218
15.870182 62.615 -106.2622
15.985184 62.604 -107.0210
16.101019 62.587 -107.6890
16.217694 62.565 -108.2609
16.335214 62.542 -108.7354
16.453586 62.521 -109.1158
16.572815 62.505 -109.4094
16.692909 62.496 -109.6275
16.813872 62.497 -109.7848
16.935713 62.508 -109.8986
17.058436 62.531 -109.9868
17.182048 62.564 -110.0679
17.306556 62.608 -110.1587
17.431967 62.659 -110.2737
17.558286 62.718 -110.4241
17.685521 62.780 -110.6174
17.813677 62.845 -110.8571
17.942762 62.910 -111.1434
18.072783 62.972 -111.4728
18.203746 63.031 -111.8393
18.335658 63.085 -112.2347
18.468526 63.133 -112.6494
18.602356 63.174 -113.0731
18.737156 63.209 -113.4954
18.872934 63.238 -113.9063
19.009695 63.262 -114.2972
19.147447 63.282 -114.6612
19.286197 63.300 -114.9937
19.425953 63.317 -115.2926
19.566721 63.335 -115.5592
19.708510 63.355 -115.7976
19.851326 63.379 -116.0153
19.995177 63.408 -116.2218
20.140070 63.442 -116.4289
20.286013 63.481 -116.6488
20.433014 63.526 -116.8936
20.581080 63.573 -117.1732
20.730219 63.622 -117.4948
20.880439 63.671 -117.8617
21.031747 63.716 -118.2728
21.184152 63.758 -118.7225
21.337661 63.793 -119.2011
21.492282 63.820 -119.6958
21.648024 63.840 -120.1920
21.804895 63.853 -120.6746
21.962902 63.860 -121.1302
22.122054 63.863 -121.5482
22.282360 63.864 -121.9229
22.443827 63.867 -122.2541
22.606464 63.875 -122.5472
22.770280 63.887 -122.8129
22.935283 63.907 -123.0652
23.101481 63.934 -123.3192
23.268884 63.967 -123.5887
23.437500 64.005 -123.8839
23.607338 64.045 -124.2096
23.778406 64.084 -124.5647
23.950714 64.122 -124.9430
24.124271 64.157 -125.3343
24.299086 64.188 -125.7270
24.475167 64.216 -126.1101
24.652524 64.242 -126.4756
24.831166 64.268 -126.8200
25.011103 64.295 -127.1443
25.192344 64.324 -127.4534
25.374898 64.354 -127.7544
25.558775 64.385 -128.0531
25.743984 64.416 -128.3523
25.930536 64.445 -128.6493
26.118439 64.470 -128.9352
26.307704 64.490 -129.1958
26.498341 64.507 -129.4142
26.690359 64.521 -129.5742
26.883768 64.537 -129.6653
27.078579 64.558 -129.6866
27.274801 64.590 -129.6502
27.472446 64.636 -129.5818
27.671522 64.699 -129.5192
27.872042 64.778 -129.5065
28.074014 64.871 -129.5876
28.277450 64.971 -129.7984
28.482360 65.072 -130.1606
28.688755 65.164 -130.6782
28.896645 65.240 -131.3361
29.106042 65.292 -132.1017
29.316957 65.314 -132.9275
29.529400 65.304 -133.7552
29.743382 65.262 -134.5201
29.958915 65.191 -135.1572
30.176009 65.098 -135.6074
30.394677 64.994 -135.8262
30.614929 64.891 -135.7926
30.836778 64.803 -135.5166
31.060234 64.744 -135.0429
31.285309 64.723 -134.4474
31.512015 64.744 -133.8254
31.740364 64.806 -133.2737
31.970368 64.901 -132.8726
32.202039 65.017 -132.6737
32.435388 65.143 -132.6964
32.670428 65.268 -132.9314
32.907171 65.384 -133.3501
33.145630 65.485 -133.9132
33.385817 65.569 -134.5794
33.627745 65.634 -135.3095
33.871425 65.680 -136.0693
34.116871 65.710 -136.8292
34.364096 65.724 -137.5640
34.613113 65.725 -138.2531
34.863934 65.716 -138.8814
35.116572 65.701 -139.4418
35.371041 65.685 -139.9371
35.627354 65.669 -140.3804
35.885525 65.656 -140.7922
36.145566 65.646 -141.1945
36.407492 65.635 -141.6034
36.671316 65.620 -142.0218
36.937051 65.597 -142.4376
37.204712 65.565 -142.8254
37.474313 65.524 -143.1538
37.745867 65.477 -143.3949
38.019389 65.429 -143.5326
38.294893 65.388 -143.5675
38.572394 65.357 -143.5166
38.851905 65.341 -143.4076
39.133442 65.341 -143.2710
39.417019 65.356 -143.1339
39.702651 65.384 -143.0169
39.990353 65.424 -142.9348
40.280140 65.474 -142.8987
40.572026 65.530 -142.9165
40.866028 65.591 -142.9925
41.162160 65.653 -143.1241
41.460438 65.712 -143.3020
41.760877 65.768 -143.5110
42.063494 65.818 -143.7353
42.368303 65.863 -143.9631
42.675322 65.904 -144.1902
42.984565 65.941 -144.4189
43.296048 65.974 -144.6545
43.609789 66.000 -144.9000
43.925804 66.017 -145.1534
44.244108 66.025 -145.4075
44.564719 66.023 -145.6539
44.887654 66.012 -145.8858
45.212928 65.992 -146.0999
45.540560 65.965 -146.2954
45.870565 65.933 -146.4724
46.202962 65.897 -146.6312
46.537768 65.861 -146.7749
46.875000 65.827 -146.9125
47.214676 65.798 -147.0615
47.556813 65.778 -147.2454
47.901429 65.766 -147.4868
48.248542 65.761 -147.7988
48.598171 65.760 -148.1806
48.950334 65.762 -148.6177
49.305048 65.767 -149.0881
49.662333 65.776 -149.5685
50.022206 65.791 -150.0394
50.384688 65.814 -150.4865
50.749796 65.845 -150.8999
51.117550 65.886 -151.2748
51.487969 65.938 -151.6120
51.861072 65.997 -151.9176
52.236879 66.062 -152.1988
52.615409 66.128 -152.4573
52.996681 66.189 -152.6837
53.380717 66.244 -152.8581
53.767536 66.290 -152.9592
54.157158 66.329 -152.9762
54.549603 66.365 -152.9163
54.944892 66.398 -152.8027
55.343045 66.427 -152.6630
55.744084 66.452 -152.5178
56.148028 66.471 -152.3761
56.554900 66.484 -152.2393
56.964720 66.494 -152.1103
57.377510 66.504 -151.9993
57.793291 66.517 -151.9264
58.212085 66.537 -151.9213
58.633914 66.563 -152.0201
59.058799 66.593 -152.2556
59.486764 66.619 -152.6410
59.917829 66.633 -153.1527
60.352019 66.629 -153.7257
60.789354 66.604 -154.2711
61.229859 66.565 -154.7075
61.673556 66.523 -154.9912
62.120468 66.488 -155.1249
62.570618 66.467 -155.1433
63.024031 66.460 -155.0898
63.480729 66.468 -155.0044
63.940736 66.487 -154.9239
64.404077 66.512 -154.8828
64.870776 66.538 -154.9033
65.340856 66.558 -154.9849
65.814343 66.570 -155.1062
66.291261 66.572 -155.2435
66.771635 66.571 -155.3909
67.255489 66.568 -155.5622
67.742850 66.563 -155.7749
68.233743 66.556 -156.0307
68.728193 66.544 -156.3111
69.226226 66.531 -156.5894
69.727867 66.518 -156.8466
70.233144 66.509 -157.0782
70.742083 66.507 -157.2903
71.254709 66.509 -157.4908
71.771050 66.514 -157.6824
72.291132 66.520 -157.8606
72.814984 66.525 -158.0177
73.342631 66.528 -158.1491
73.874102 66.530 -158.2561
74.409424 66.528 -158.3408
74.948626 66.523 -158.3997
75.491734 66.517 -158.4250
76.038779 66.514 -158.4200
76.589787 66.519 -158.4114
77.144788 66.534 -158.4450
77.703811 66.556 -158.5604
78.266885 66.578 -158.7692
78.834039 66.597 -159.0524
79.405303 66.609 -159.3755
79.980706 66.614 -159.7030
80.560280 66.612 -160.0026
81.144053 66.604 -160.2452
81.732056 66.594 -160.4099
82.324320 66.586 -160.4918
82.920876 66.581 -160.5036
83.521755 66.581 -160.4702
84.126988 66.586 -160.4184
84.736607 66.595 -160.3705
85.350643 66.604 -160.3438
85.969129 66.614 -160.3547
86.592097 66.621 -160.4186
87.219579 66.625 -160.5406
87.851608 66.622 -160.7099
88.488217 66.615 -160.9109
89.129439 66.606 -161.1389
89.775308 66.597 -161.3983
90.425856 66.586 -161.6845
91.081119 66.572 -161.9731
91.741131 66.556 -162.2293
92.405925 66.543 -162.4231
93.075536 66.535 -162.5428
93.750000 66.535 -162.5994
94.429351 66.544 -162.6171
95.113625 66.558 -162.6145
95.802858 66.573 -162.5962
96.497085 66.586 -162.5613
