* Measurement data measured by REW V5.31.3
* Source: Headset (CX31993 HIFI AUDIO), MICROPHONE (Master Volume), R, volume: 0.250
* Format: 256k Log Swept Sine, 1 sweep at -12.0 dBFS with no timing reference
* Dated: 03 3, 25 11:22:22 AM
* REW Settings:
*  C-weighting compensation: Off
*  Target level: 75.0 dB
* Note: ; 
* Measurement: SGOR Luna 500 R
* Smoothing: 1/12 octave
* Frequency Step: 96 ppo
* Start Frequency: 0.36621094 Hz
*
* Freq(Hz) SPL(dB) Phase(degrees)
0.366211 27.405 28.9827
0.368865 27.432 29.0024
0.371538 27.470 29.0319
0.374230 27.518 29.0690
0.376942 27.572 29.1118
0.379673 27.629 29.1589
0.382424 27.689 29.2094
0.385196 27.750 29.2627
0.387987 27.812 29.3184
0.390798 27.876 29.3764
0.393630 27.939 29.4365
0.396483 28.004 29.4986
0.399356 28.068 29.5626
0.402250 28.134 29.6284
0.405165 28.199 29.6961
0.408101 28.265 29.7656
0.411058 28.332 29.8367
0.414037 28.399 29.9095
0.417037 28.467 29.9839
0.420059 28.535 30.0598
0.423103 28.604 30.1371
0.426169 28.673 30.2159
0.429257 28.743 30.2959
0.432368 28.813 30.3773
0.435501 28.883 30.4598
0.438656 28.955 30.5434
0.441835 29.026 30.6280
0.445037 29.098 30.7136
0.448262 29.171 30.8001
0.451510 29.244 30.8874
0.454782 29.318 30.9755
0.458077 29.393 31.0641
0.461397 29.467 31.1533
0.464740 29.543 31.2430
0.468108 29.619 31.3331
0.471500 29.695 31.4234
0.474917 29.772 31.5140
0.478358 29.850 31.6046
0.481825 29.928 31.6953
0.485316 30.007 31.7859
0.488833 30.086 31.8763
0.492375 30.166 31.9665
0.495943 30.247 32.0562
0.499537 30.328 32.1455
0.503157 30.409 32.2342
0.506803 30.492 32.3223
0.510475 30.574 32.4096
0.514175 30.658 32.4960
0.517900 30.742 32.5814
0.521653 30.827 32.6657
0.525434 30.912 32.7488
0.529241 30.998 32.8307
0.533076 31.084 32.9112
0.536939 31.171 32.9901
0.540830 31.259 33.0675
0.544749 31.347 33.1431
0.548696 31.437 33.2169
0.552673 31.526 33.2889
0.556677 31.617 33.3587
0.560711 31.708 33.4265
0.564774 31.799 33.4921
0.568867 31.892 33.5553
0.572989 31.985 33.6160
0.577141 32.078 33.6743
0.581324 32.173 33.7299
0.585536 32.268 33.7828
0.589779 32.363 33.8328
0.594053 32.460 33.8800
0.598358 32.557 33.9241
0.602694 32.655 33.9651
0.607061 32.753 34.0029
0.611460 32.852 34.0374
0.615891 32.952 34.0685
0.620354 33.053 34.0962
0.624849 33.155 34.1203
0.629377 33.257 34.1407
0.633938 33.360 34.1575
0.638532 33.463 34.1704
0.643159 33.568 34.1795
0.647819 33.673 34.1846
0.652514 33.779 34.1857
0.657242 33.885 34.1826
0.662005 33.993 34.1755
0.666802 34.101 34.1641
0.671634 34.210 34.1484
0.676501 34.320 34.1283
0.681403 34.431 34.1039
0.686341 34.542 34.0750
0.691314 34.654 34.0416
0.696324 34.767 34.0037
0.701370 34.881 33.9614
0.706452 34.995 33.9146
0.711571 35.110 33.8636
0.716728 35.226 33.8085
0.721921 35.341 33.7500
0.727153 35.457 33.6886
0.732422 35.572 33.6253
0.737729 35.687 33.5612
0.743075 35.802 33.4974
0.748460 35.916 33.4346
0.753883 36.031 33.3733
0.759346 36.146 33.3139
0.764849 36.262 33.2563
0.770391 36.378 33.2005
0.775974 36.495 33.1463
0.781597 36.612 33.0935
0.787261 36.731 33.0420
0.792966 36.849 32.9914
0.798712 36.969 32.9415
0.804500 37.089 32.8922
0.810329 37.210 32.8432
0.816201 37.331 32.7941
0.822116 37.453 32.7449
0.828073 37.576 32.6953
0.834074 37.699 32.6450
0.840118 37.823 32.5939
0.846206 37.948 32.5416
0.852338 38.073 32.4881
0.858514 38.199 32.4330
0.864735 38.325 32.3763
0.871001 38.452 32.3176
0.877313 38.580 32.2568
0.883670 38.708 32.1937
0.890074 38.837 32.1281
0.896524 38.966 32.0598
0.903020 39.096 31.9885
0.909564 39.227 31.9143
0.916155 39.358 31.8367
0.922794 39.489 31.7558
0.929481 39.621 31.6712
0.936216 39.753 31.5829
0.943000 39.886 31.4907
0.949834 40.020 31.3944
0.956717 40.154 31.2938
0.963649 40.288 31.1888
0.970632 40.423 31.0792
0.977666 40.558 30.9650
0.984750 40.694 30.8458
0.991886 40.830 30.7217
0.999074 40.966 30.5924
1.006314 41.103 30.4579
1.013606 41.240 30.3180
1.020951 41.378 30.1725
1.028349 41.515 30.0214
1.035801 41.653 29.8645
1.043307 41.792 29.7018
1.050867 41.930 29.5332
1.058482 42.069 29.3586
1.066152 42.208 29.1782
1.073878 42.347 28.9922
1.081660 42.486 28.8010
1.089498 42.626 28.6051
1.097393 42.765 28.4056
1.105345 42.905 28.2035
1.113355 43.045 27.9998
1.121423 43.185 27.7956
1.129549 43.325 27.5914
1.137734 43.465 27.3876
1.145979 43.606 27.1842
1.154283 43.746 26.9813
1.162647 43.887 26.7787
1.171072 44.028 26.5763
1.179558 44.169 26.3740
1.188106 44.310 26.1715
1.196715 44.452 25.9687
1.205387 44.593 25.7652
1.214122 44.735 25.5611
1.222920 44.877 25.3559
1.231782 45.019 25.1496
1.240708 45.161 24.9420
1.249699 45.303 24.7327
1.258754 45.445 24.5218
1.267876 45.588 24.3089
1.277063 45.730 24.0938
1.286318 45.873 23.8764
1.295639 46.016 23.6565
1.305027 46.159 23.4339
1.314484 46.303 23.2085
1.324009 46.446 22.9799
1.333604 46.590 22.7481
1.343268 46.734 22.5129
1.353002 46.878 22.2741
1.362806 47.022 22.0315
1.372681 47.167 21.7849
1.382628 47.312 21.5343
1.392647 47.456 21.2794
1.402739 47.602 21.0201
1.412904 47.747 20.7564
1.423142 47.893 20.4883
1.433455 48.038 20.2159
1.443843 48.184 19.9395
1.454305 48.330 19.6598
1.464844 48.477 19.3774
1.475459 48.623 19.0933
1.486150 48.769 18.8084
1.496920 48.915 18.5234
1.507767 49.061 18.2386
1.518693 49.207 17.9543
1.529698 49.352 17.6704
1.540783 49.498 17.3866
1.551948 49.643 17.1029
1.563194 49.788 16.8188
1.574521 49.933 16.5341
1.585931 50.078 16.2486
1.597423 50.223 15.9617
1.608999 50.367 15.6734
1.620658 50.512 15.3832
1.632402 50.656 15.0908
1.644232 50.801 14.7959
1.656146 50.945 14.4982
1.668147 51.089 14.1975
1.680235 51.233 13.8934
1.692411 51.377 13.5855
1.704675 51.521 13.2737
1.717028 51.665 12.9577
1.729470 51.809 12.6371
1.742003 51.954 12.3117
1.754626 52.098 11.9813
1.767341 52.242 11.6456
1.780147 52.387 11.3047
1.793047 52.531 10.9583
1.806040 52.676 10.6068
1.819128 52.820 10.2504
1.832310 52.965 9.8898
1.845587 53.109 9.5256
1.858961 53.253 9.1586
1.872432 53.397 8.7894
1.886001 53.541 8.4183
1.899667 53.684 8.0458
1.913433 53.827 7.6718
1.927299 53.969 7.2965
1.941265 54.111 6.9198
1.955332 54.253 6.5416
1.969501 54.395 6.1618
1.983773 54.536 5.7804
1.998148 54.677 5.3972
2.012627 54.818 5.0121
2.027212 54.959 4.6249
2.041902 55.099 4.2355
2.056698 55.239 3.8437
2.071602 55.379 3.4493
2.086614 55.519 3.0521
2.101734 55.659 2.6521
2.116964 55.799 2.2489
2.132304 55.939 1.8425
2.147756 56.078 1.4327
2.163320 56.218 1.0196
2.178996 56.357 0.6032
2.194786 56.497 0.1837
2.210690 56.636 -0.2386
2.226710 56.775 -0.6633
2.242845 56.913 -1.0901
2.259098 57.052 -1.5188
2.275468 57.189 -1.9492
2.291957 57.326 -2.3812
2.308566 57.463 -2.8147
2.325295 57.600 -3.2497
2.342145 57.736 -3.6862
2.359117 57.871 -4.1244
2.376212 58.007 -4.5642
2.393431 58.142 -5.0058
2.410775 58.276 -5.4493
2.428244 58.411 -5.8947
2.445840 58.545 -6.3422
2.463564 58.679 -6.7919
2.481416 58.813 -7.2439
2.499397 58.946 -7.6984
2.517509 59.080 -8.1555
2.535752 59.213 -8.6152
2.554127 59.347 -9.0775
2.572635 59.480 -9.5422
2.591277 59.612 -10.0094
2.610055 59.744 -10.4787
2.628968 59.876 -10.9501
2.648019 60.007 -11.4234
2.667208 60.138 -11.8985
2.686535 60.269 -12.3753
2.706003 60.399 -12.8539
2.725612 60.528 -13.3342
2.745363 60.657 -13.8161
2.765257 60.786 -14.2999
2.785295 60.914 -14.7854
2.805478 61.042 -15.2728
2.825808 61.170 -15.7621
2.846285 61.298 -16.2535
2.866910 61.425 -16.7471
2.887685 61.552 -17.2430
2.908611 61.679 -17.7412
2.929688 61.805 -18.2418
2.950917 61.931 -18.7449
2.972301 62.057 -19.2504
2.993839 62.183 -19.7582
3.015534 62.307 -20.2682
3.037386 62.432 -20.7804
3.059396 62.555 -21.2945
3.081565 62.679 -21.8106
3.103896 62.802 -22.3285
3.126388 62.924 -22.8483
3.149043 63.046 -23.3698
3.171862 63.167 -23.8932
3.194847 63.289 -24.4184
3.217998 63.409 -24.9456
3.241317 63.530 -25.4749
3.264805 63.650 -26.0064
3.288463 63.769 -26.5403
3.312293 63.888 -27.0768
3.336295 64.007 -27.6160
3.360471 64.125 -28.1579
3.384822 64.243 -28.7024
3.409350 64.360 -29.2493
3.434056 64.476 -29.7985
3.458940 64.592 -30.3498
3.484005 64.707 -30.9030
3.509252 64.822 -31.4580
3.534681 64.936 -32.0146
3.560295 65.049 -32.5728
3.586094 65.162 -33.1327
3.612081 65.274 -33.6944
3.638255 65.386 -34.2581
3.664620 65.497 -34.8243
3.691175 65.607 -35.3931
3.717923 65.717 -35.9649
3.744864 65.826 -36.5396
3.772001 65.934 -37.1170
3.799335 66.041 -37.6969
3.826866 66.148 -38.2786
3.854597 66.254 -38.8619
3.882529 66.358 -39.4463
3.910664 66.463 -40.0314
3.939002 66.566 -40.6171
3.967546 66.668 -41.2033
3.996296 66.770 -41.7902
4.025255 66.871 -42.3783
4.054423 66.970 -42.9679
4.083804 67.069 -43.5595
4.113396 67.167 -44.1532
4.143204 67.264 -44.7487
4.173227 67.360 -45.3457
4.203468 67.454 -45.9434
4.233928 67.548 -46.5410
4.264609 67.641 -47.1379
4.295512 67.732 -47.7334
4.326639 67.823 -48.3273
4.357992 67.913 -48.9195
4.389572 68.001 -49.5102
4.421380 68.088 -50.1000
4.453419 68.174 -50.6894
4.485691 68.259 -51.2786
4.518196 68.343 -51.8672
4.550936 68.426 -52.4548
4.583914 68.507 -53.0404
4.617131 68.588 -53.6231
4.650589 68.667 -54.2020
4.684289 68.745 -54.7764
4.718233 68.822 -55.3458
4.752424 68.898 -55.9103
4.786862 68.973 -56.4701
4.821549 69.047 -57.0257
4.856488 69.120 -57.5772
4.891680 69.192 -58.1247
4.927127 69.263 -58.6675
4.962831 69.332 -59.2051
4.998794 69.401 -59.7366
5.035017 69.469 -60.2611
5.071503 69.537 -60.7781
5.108253 69.604 -61.2871
5.145270 69.670 -61.7881
5.182555 69.736 -62.2813
5.220110 69.801 -62.7670
5.257937 69.865 -63.2453
5.296038 69.929 -63.7164
5.334415 69.993 -64.1801
5.373071 70.057 -64.6362
5.412006 70.120 -65.0844
5.451224 70.184 -65.5244
5.490725 70.247 -65.9560
5.530514 70.311 -66.3792
5.570590 70.376 -66.7941
5.610957 70.440 -67.2012
5.651616 70.505 -67.6012
5.692570 70.570 -67.9948
5.733821 70.636 -68.3827
5.775370 70.702 -68.7655
5.817221 70.770 -69.1437
5.859375 70.838 -69.5173
5.901834 70.907 -69.8866
5.944602 70.977 -70.2518
5.987679 71.049 -70.6135
6.031068 71.121 -70.9729
6.074771 71.194 -71.3311
6.118792 71.268 -71.6896
6.163131 71.343 -72.0493
6.207792 71.419 -72.4112
6.252776 71.496 -72.7756
6.298086 71.574 -73.1428
6.343725 71.653 -73.5132
6.389694 71.732 -73.8874
6.435996 71.813 -74.2663
6.482634 71.894 -74.6511
6.529610 71.975 -75.0426
6.576926 72.057 -75.4417
6.624585 72.138 -75.8486
6.672590 72.220 -76.2636
6.720942 72.303 -76.6864
6.769645 72.385 -77.1171
6.818700 72.466 -77.5555
6.868111 72.547 -78.0017
6.917881 72.628 -78.4559
6.968010 72.707 -78.9182
7.018504 72.786 -79.3884
7.069362 72.864 -79.8662
7.120590 72.941 -80.3507
7.172189 73.016 -80.8410
7.224161 73.090 -81.3361
7.276511 73.163 -81.8352
7.329239 73.234 -82.3376
7.382350 73.303 -82.8430
7.435845 73.371 -83.3507
7.489729 73.437 -83.8599
7.544002 73.502 -84.3691
7.598669 73.565 -84.8771
7.653732 73.627 -85.3826
7.709194 73.687 -85.8848
7.765058 73.745 -86.3833
7.821327 73.803 -86.8775
7.878004 73.859 -87.3668
7.935091 73.914 -87.8506
7.992592 73.968 -88.3279
8.050510 74.021 -88.7983
8.108847 74.074 -89.2614
8.167607 74.127 -89.7174
8.226793 74.179 -90.1665
8.286408 74.231 -90.6093
8.346454 74.283 -91.0463
8.406936 74.336 -91.4779
8.467856 74.389 -91.9046
8.529218 74.442 -92.3272
8.591024 74.496 -92.7469
8.653278 74.551 -93.1651
8.715983 74.607 -93.5832
8.779143 74.663 -94.0027
8.842760 74.720 -94.4248
8.906839 74.778 -94.8503
8.971381 74.837 -95.2805
9.036392 74.895 -95.7167
9.101873 74.954 -96.1602
9.167829 75.014 -96.6120
9.234263 75.072 -97.0727
9.301178 75.131 -97.5425
9.368578 75.189 -98.0214
9.436467 75.246 -98.5092
9.504847 75.302 -99.0058
9.573723 75.356 -99.5107
9.643099 75.408 -100.0230
9.712976 75.459 -100.5412
9.783361 75.507 -101.0636
9.854255 75.553 -101.5883
9.925663 75.597 -102.1135
9.997588 75.638 -102.6375
10.070035 75.677 -103.1579
10.143007 75.713 -103.6724
10.216507 75.747 -104.1782
10.290540 75.779 -104.6731
10.365109 75.809 -105.1553
10.440219 75.837 -105.6232
10.515873 75.865 -106.0748
10.592076 75.891 -106.5089
10.668830 75.917 -106.9245
10.746141 75.944 -107.3212
10.824012 75.971 -107.6995
10.902447 75.999 -108.0604
10.981451 76.029 -108.4051
11.061027 76.062 -108.7354
11.141180 76.097 -109.0539
11.221913 76.135 -109.3638
11.303232 76.177 -109.6690
11.385140 76.222 -109.9732
11.467641 76.270 -110.2803
11.550741 76.322 -110.5942
11.634442 76.377 -110.9193
11.718750 76.435 -111.2595
11.803669 76.495 -111.6182
11.889203 76.558 -111.9980
11.975357 76.621 -112.4011
12.062136 76.686 -112.8292
12.149543 76.750 -113.2832
12.237583 76.813 -113.7630
12.326262 76.875 -114.2674
12.415583 76.935 -114.7950
12.505552 76.992 -115.3435
12.596172 77.046 -115.9102
12.687449 77.096 -116.4914
12.779387 77.143 -117.0832
12.871992 77.185 -117.6814
12.965268 77.223 -118.2821
13.059220 77.256 -118.8809
13.153852 77.286 -119.4735
13.249170 77.312 -120.0561
13.345179 77.335 -120.6254
13.441884 77.355 -121.1785
13.539289 77.372 -121.7132
13.637401 77.388 -122.2277
13.736223 77.402 -122.7214
13.835761 77.416 -123.1945
13.936021 77.430 -123.6476
14.037007 77.445 -124.0821
14.138725 77.460 -124.5002
14.241180 77.477 -124.9043
14.344377 77.495 -125.2974
14.448323 77.515 -125.6820
14.553021 77.536 -126.0611
14.658478 77.558 -126.4371
14.764700 77.581 -126.8120
14.871691 77.605 -127.1872
14.979457 77.630 -127.5636
15.088005 77.654 -127.9413
15.197339 77.679 -128.3196
15.307465 77.703 -128.6976
15.418389 77.726 -129.0736
15.530117 77.748 -129.4459
15.642655 77.770 -129.8125
15.756008 77.791 -130.1717
15.870182 77.812 -130.5220
15.985184 77.834 -130.8627
16.101019 77.856 -131.1937
16.217694 77.879 -131.5155
16.335214 77.903 -131.8298
16.453586 77.929 -132.1391
16.572815 77.958 -132.4465
16.692909 77.988 -132.7559
16.813872 78.021 -133.0712
16.935713 78.056 -133.3966
17.058436 78.092 -133.7358
17.182048 78.129 -134.0918
17.306556 78.167 -134.4669
17.431967 78.204 -134.8621
17.558286 78.239 -135.2770
17.685521 78.273 -135.7100
17.813677 78.304 -136.1581
17.942762 78.331 -136.6173
18.072783 78.354 -137.0824
18.203746 78.373 -137.5478
18.335658 78.388 -138.0077
18.468526 78.400 -138.4562
18.602356 78.408 -138.8884
18.737156 78.414 -139.3001
18.872934 78.419 -139.6886
19.009695 78.423 -140.0529
19.147447 78.428 -140.3936
19.286197 78.434 -140.7133
19.425953 78.443 -141.0163
19.566721 78.456 -141.3078
19.708510 78.471 -141.5945
19.851326 78.491 -141.8829
19.995177 78.513 -142.1797
20.140070 78.538 -142.4904
20.286013 78.565 -142.8196
20.433014 78.594 -143.1701
20.581080 78.622 -143.5432
20.730219 78.650 -143.9380
20.880439 78.675 -144.3526
21.031747 78.699 -144.7836
21.184152 78.720 -145.2265
21.337661 78.737 -145.6766
21.492282 78.752 -146.1291
21.648024 78.764 -146.5795
21.804895 78.773 -147.0236
21.962902 78.779 -147.4583
22.122054 78.784 -147.8812
22.282360 78.788 -148.2905
22.443827 78.791 -148.6853
22.606464 78.794 -149.0653
22.770280 78.797 -149.4305
22.935283 78.800 -149.7815
23.101481 78.804 -150.1192
23.268884 78.810 -150.4450
23.437500 78.818 -150.7608
23.607338 78.827 -151.0691
23.778406 78.839 -151.3733
23.950714 78.854 -151.6772
24.124271 78.871 -151.9851
24.299086 78.890 -152.3016
24.475167 78.912 -152.6307
24.652524 78.934 -152.9758
24.831166 78.957 -153.3389
25.011103 78.979 -153.7203
25.192344 78.999 -154.1183
25.374898 79.018 -154.5294
25.558775 79.033 -154.9488
25.743984 79.045 -155.3705
25.930536 79.054 -155.7885
26.118439 79.060 -156.1974
26.307704 79.064 -156.5935
26.498341 79.067 -156.9747
26.690359 79.070 -157.3414
26.883768 79.073 -157.6962
27.078579 79.077 -158.0432
27.274801 79.083 -158.3874
27.472446 79.089 -158.7337
27.671522 79.096 -159.0861
27.872042 79.103 -159.4468
28.074014 79.108 -159.8164
28.277450 79.113 -160.1934
28.482360 79.115 -160.5751
28.688755 79.116 -160.9578
28.896645 79.114 -161.3378
29.106042 79.111 -161.7117
29.316957 79.106 -162.0770
29.529400 79.100 -162.4320
29.743382 79.094 -162.7762
29.958915 79.089 -163.1096
30.176009 79.084 -163.4335
30.394677 79.081 -163.7501
30.614929 79.079 -164.0629
30.836778 79.081 -164.3767
31.060234 79.085 -164.6980
31.285309 79.091 -165.0340
31.512015 79.099 -165.3915
31.740364 79.108 -165.7759
31.970368 79.116 -166.1893
32.202039 79.121 -166.6291
32.435388 79.121 -167.0877
32.670428 79.115 -167.5527
32.907171 79.103 -168.0088
33.145630 79.085 -168.4398
33.385817 79.064 -168.8321
33.627745 79.040 -169.1770
33.871425 79.018 -169.4730
34.116871 79.000 -169.7260
34.364096 78.988 -169.9483
34.613113 78.982 -170.1557
34.863934 78.983 -170.3647
35.116572 78.990 -170.5886
35.371041 79.000 -170.8360
35.627354 79.011 -171.1098
35.885525 79.022 -171.4081
36.145566 79.032 -171.7259
36.407492 79.039 -172.0567
36.671316 79.044 -172.3943
36.937051 79.046 -172.7341
37.204712 79.047 -173.0726
37.474313 79.046 -173.4078
37.745867 79.043 -173.7389
38.019389 79.039 -174.0653
38.294893 79.033 -174.3868
38.572394 79.027 -174.7031
38.851905 79.019 -175.0138
39.133442 79.011 -175.3184
39.417019 79.002 -175.6169
39.702651 78.993 -175.9095
39.990353 78.985 -176.1971
40.280140 78.976 -176.4811
40.572026 78.968 -176.7635
40.866028 78.961 -177.0462
41.162160 78.954 -177.3306
41.460438 78.948 -177.6178
41.760877 78.942 -177.9091
42.063494 78.936 -178.2057
42.368303 78.931 -178.5094
42.675322 78.925 -178.8221
42.984565 78.918 -179.1442
43.296048 78.909 -179.4740
43.609789 78.898 -179.8072
43.925804 78.885 179.8628
44.244108 78.869 179.5427
44.564719 78.851 179.2367
44.887654 78.833 178.9455
45.212928 78.815 178.6666
45.540560 78.797 178.3959
45.870565 78.780 178.1306
46.202962 78.763 177.8702
46.537768 78.747 177.6161
46.875000 78.731 177.3691
47.214676 78.716 177.1270
47.556813 78.703 176.8843
47.901429 78.693 176.6334
48.248542 78.683 176.3688
48.598171 78.673 176.0899
48.950334 78.662 175.8009
49.305048 78.649 175.5092
49.662333 78.635 175.2214
50.022206 78.621 174.9409
50.384688 78.606 174.6672
50.749796 78.592 174.3978
51.117550 78.577 174.1303
51.487969 78.563 173.8642
51.861072 78.548 173.6006
52.236879 78.532 173.3412
52.615409 78.516 173.0868
52.996681 78.500 172.8363
53.380717 78.483 172.5871
53.767536 78.466 172.3362
54.157158 78.449 172.0812
54.549603 78.431 171.8212
54.944892 78.412 171.5559
55.343045 78.392 171.2846
55.744084 78.372 171.0055
56.148028 78.352 170.7168
56.554900 78.331 170.4180
56.964720 78.310 170.1114
57.377510 78.288 169.8000
57.793291 78.267 169.4854
58.212085 78.246 169.1663
58.633914 78.226 168.8412
59.058799 78.206 168.5142
59.486764 78.185 168.1967
59.917829 78.163 167.9031
60.352019 78.144 167.6412
60.789354 78.129 167.4043
61.229859 78.120 167.1737
61.673556 78.115 166.9291
62.120468 78.111 166.6606
62.570618 78.104 166.3712
63.024031 78.091 166.0726
63.480729 78.073 165.7774
63.940736 78.048 165.4967
64.404077 78.017 165.2407
64.870776 77.982 165.0186
65.340856 77.943 164.8352
65.814343 77.903 164.6873
66.291261 77.866 164.5641
66.771635 77.831 164.4518
67.255489 77.800 164.3366
67.742850 77.772 164.2067
68.233743 77.746 164.0535
68.728193 77.720 163.8745
69.226226 77.694 163.6747
69.727867 77.666 163.4641
70.233144 77.638 163.2512
70.742083 77.609 163.0389
71.254709 77.580 162.8265
71.771050 77.551 162.6139
72.291132 77.521 162.4023
72.814984 77.491 162.1918
73.342631 77.461 161.9819
73.874102 77.429 161.7743
74.409424 77.397 161.5747
74.948626 77.365 161.3872
75.491734 77.335 161.2077
76.038779 77.307 161.0246
76.589787 77.283 160.8274
77.144788 77.259 160.6127
77.703811 77.236 160.3841
78.266885 77.212 160.1473
78.834039 77.187 159.9087
79.405303 77.162 159.6751
79.980706 77.136 159.4525
80.560280 77.110 159.2418
81.144053 77.085 159.0386
81.732056 77.060 158.8366
82.324320 77.034 158.6335
82.920876 77.006 158.4319
83.521755 76.976 158.2371
84.126988 76.944 158.0515
84.736607 76.912 157.8725
85.350643 76.879 157.6961
85.969129 76.846 157.5199
86.592097 76.813 157.3431
87.219579 76.780 157.1638
87.851608 76.747 156.9800
88.488217 76.713 156.7932
89.129439 76.680 156.6068
89.775308 76.646 156.4225
90.425856 76.613 156.2376
91.081119 76.580 156.0492
91.741131 76.547 155.8568
92.405925 76.512 155.6637
93.075536 76.477 155.4755
93.750000 76.440 155.2977
94.429351 76.404 155.1325
95.113625 76.368 154.9779
95.802858 76.334 154.8292
