* Measurement data measured by REW V5.31.3
* Source: Headset (CX31993 HIFI AUDIO), MICROPHONE (Master Volume), R, volume: 0.250
* Format: 256k Log Swept Sine, 1 sweep at -12.0 dBFS with no timing reference
* Dated: 01 11, 25 3:43:13 PM
* REW Settings:
*  C-weighting compensation: Off
*  Target level: 75.0 dB
* Note: ; 
* Measurement: Softears Volume S low R
* Smoothing: 1/12 octave
* Frequency Step: 96 ppo
* Start Frequency: 0.36621094 Hz
*
* Freq(Hz) SPL(dB) Phase(degrees)
0.366211 52.583 -57.9020
0.368865 52.598 -58.0565
0.371538 52.619 -58.2872
0.374230 52.645 -58.5757
0.376942 52.675 -58.9058
0.379673 52.707 -59.2660
0.382424 52.740 -59.6484
0.385196 52.774 -60.0482
0.387987 52.808 -60.4629
0.390798 52.843 -60.8908
0.393630 52.878 -61.3312
0.396483 52.914 -61.7838
0.399356 52.950 -62.2485
0.402250 52.986 -62.7253
0.405165 53.022 -63.2142
0.408101 53.059 -63.7153
0.411058 53.096 -64.2286
0.414037 53.133 -64.7543
0.417037 53.170 -65.2923
0.420059 53.208 -65.8429
0.423103 53.246 -66.4060
0.426169 53.284 -66.9816
0.429257 53.323 -67.5699
0.432368 53.362 -68.1708
0.435501 53.401 -68.7844
0.438656 53.440 -69.4105
0.441835 53.480 -70.0493
0.445037 53.520 -70.7007
0.448262 53.560 -71.3646
0.451510 53.601 -72.0409
0.454782 53.641 -72.7297
0.458077 53.683 -73.4307
0.461397 53.724 -74.1438
0.464740 53.766 -74.8690
0.468108 53.808 -75.6060
0.471500 53.850 -76.3547
0.474917 53.893 -77.1149
0.478358 53.936 -77.8864
0.481825 53.979 -78.6689
0.485316 54.023 -79.4622
0.488833 54.066 -80.2661
0.492375 54.111 -81.0801
0.495943 54.155 -81.9041
0.499537 54.200 -82.7377
0.503157 54.245 -83.5805
0.506803 54.291 -84.4323
0.510475 54.337 -85.2925
0.514175 54.383 -86.1609
0.517900 54.429 -87.0370
0.521653 54.476 -87.9204
0.525434 54.523 -88.8106
0.529241 54.571 -89.7073
0.533076 54.619 -90.6100
0.536939 54.667 -91.5183
0.540830 54.715 -92.4316
0.544749 54.764 -93.3495
0.548696 54.814 -94.2716
0.552673 54.863 -95.1974
0.556677 54.913 -96.1264
0.560711 54.964 -97.0581
0.564774 55.014 -97.9921
0.568867 55.066 -98.9280
0.572989 55.117 -99.8653
0.577141 55.169 -100.8035
0.581324 55.221 -101.7423
0.585536 55.274 -102.6812
0.589779 55.327 -103.6199
0.594053 55.380 -104.5579
0.598358 55.434 -105.4949
0.602694 55.488 -106.4305
0.607061 55.542 -107.3643
0.611460 55.597 -108.2962
0.615891 55.653 -109.2257
0.620354 55.708 -110.1526
0.624849 55.764 -111.0767
0.629377 55.821 -111.9976
0.633938 55.878 -112.9153
0.638532 55.935 -113.8294
0.643159 55.993 -114.7398
0.647819 56.051 -115.6463
0.652514 56.110 -116.5489
0.657242 56.169 -117.4473
0.662005 56.228 -118.3415
0.666802 56.288 -119.2315
0.671634 56.349 -120.1171
0.676501 56.409 -120.9983
0.681403 56.471 -121.8751
0.686341 56.532 -122.7475
0.691314 56.595 -123.6154
0.696324 56.657 -124.4790
0.701370 56.721 -125.3381
0.706452 56.786 -126.1927
0.711571 56.852 -127.0429
0.716728 56.919 -127.8885
0.721921 56.990 -128.7292
0.727153 57.064 -129.5645
0.732422 57.143 -130.3939
0.737729 57.228 -131.2164
0.743075 57.317 -132.0313
0.748460 57.412 -132.8375
0.753883 57.510 -133.6346
0.759346 57.612 -134.4219
0.764849 57.717 -135.1991
0.770391 57.824 -135.9660
0.775974 57.935 -136.7223
0.781597 58.048 -137.4680
0.787261 58.163 -138.2029
0.792966 58.281 -138.9272
0.798712 58.402 -139.6408
0.804500 58.524 -140.3437
0.810329 58.649 -141.0362
0.816201 58.777 -141.7182
0.822116 58.907 -142.3900
0.828073 59.039 -143.0516
0.834074 59.173 -143.7033
0.840118 59.309 -144.3453
0.846206 59.447 -144.9778
0.852338 59.588 -145.6010
0.858514 59.730 -146.2152
0.864735 59.875 -146.8206
0.871001 60.021 -147.4175
0.877313 60.169 -148.0062
0.883670 60.319 -148.5869
0.890074 60.471 -149.1600
0.896524 60.624 -149.7258
0.903020 60.779 -150.2844
0.909564 60.935 -150.8363
0.916155 61.092 -151.3818
0.922794 61.251 -151.9212
0.929481 61.411 -152.4547
0.936216 61.572 -152.9827
0.943000 61.734 -153.5055
0.949834 61.897 -154.0235
0.956717 62.060 -154.5369
0.963649 62.225 -155.0460
0.970632 62.389 -155.5512
0.977666 62.555 -156.0528
0.984750 62.720 -156.5511
0.991886 62.885 -157.0464
0.999074 63.051 -157.5390
1.006314 63.216 -158.0292
1.013606 63.381 -158.5173
1.020951 63.545 -159.0036
1.028349 63.709 -159.4885
1.035801 63.871 -159.9722
1.043307 64.033 -160.4549
1.050867 64.193 -160.9371
1.058482 64.353 -161.4188
1.066152 64.510 -161.9003
1.073878 64.666 -162.3816
1.081660 64.821 -162.8628
1.089498 64.973 -163.3437
1.097393 65.125 -163.8239
1.105345 65.275 -164.3028
1.113355 65.423 -164.7800
1.121423 65.572 -165.2547
1.129549 65.719 -165.7268
1.137734 65.866 -166.1959
1.145979 66.012 -166.6619
1.154283 66.158 -167.1248
1.162647 66.304 -167.5845
1.171072 66.449 -168.0411
1.179558 66.594 -168.4946
1.188106 66.738 -168.9452
1.196715 66.882 -169.3929
1.205387 67.026 -169.8377
1.214122 67.169 -170.2798
1.222920 67.312 -170.7194
1.231782 67.455 -171.1564
1.240708 67.597 -171.5911
1.249699 67.740 -172.0234
1.258754 67.882 -172.4537
1.267876 68.023 -172.8819
1.277063 68.165 -173.3082
1.286318 68.306 -173.7327
1.295639 68.447 -174.1556
1.305027 68.588 -174.5770
1.314484 68.729 -174.9971
1.324009 68.869 -175.4160
1.333604 69.010 -175.8337
1.343268 69.150 -176.2506
1.353002 69.291 -176.6667
1.362806 69.431 -177.0822
1.372681 69.572 -177.4971
1.382628 69.713 -177.9118
1.392647 69.853 -178.3263
1.402739 69.994 -178.7408
1.412904 70.135 -179.1553
1.423142 70.277 -179.5699
1.433455 70.418 -179.9846
1.443843 70.560 179.6006
1.454305 70.701 179.1860
1.464844 70.843 178.7719
1.475459 70.984 178.3588
1.486150 71.126 177.9471
1.496920 71.266 177.5371
1.507767 71.407 177.1290
1.518693 71.547 176.7228
1.529698 71.686 176.3184
1.540783 71.825 175.9158
1.551948 71.963 175.5146
1.563194 72.100 175.1148
1.574521 72.238 174.7161
1.585931 72.374 174.3181
1.597423 72.510 173.9207
1.608999 72.646 173.5237
1.620658 72.782 173.1266
1.632402 72.917 172.7294
1.644232 73.051 172.3317
1.656146 73.185 171.9332
1.668147 73.319 171.5336
1.680235 73.453 171.1328
1.692411 73.586 170.7304
1.704675 73.720 170.3262
1.717028 73.853 169.9197
1.729470 73.986 169.5110
1.742003 74.119 169.0995
1.754626 74.252 168.6850
1.767341 74.385 168.2674
1.780147 74.517 167.8463
1.793047 74.650 167.4218
1.806040 74.783 166.9935
1.819128 74.916 166.5618
1.832310 75.049 166.1266
1.845587 75.181 165.6885
1.858961 75.313 165.2477
1.872432 75.445 164.8047
1.886001 75.576 164.3597
1.899667 75.707 163.9131
1.913433 75.837 163.4650
1.927299 75.966 163.0156
1.941265 76.095 162.5649
1.955332 76.223 162.1132
1.969501 76.351 161.6605
1.983773 76.478 161.2068
1.998148 76.605 160.7521
2.012627 76.732 160.2964
2.027212 76.858 159.8398
2.041902 76.983 159.3821
2.056698 77.109 158.9235
2.071602 77.234 158.4636
2.086614 77.358 158.0026
2.101734 77.483 157.5402
2.116964 77.607 157.0764
2.132304 77.731 156.6110
2.147756 77.855 156.1439
2.163320 77.978 155.6748
2.178996 78.101 155.2036
2.194786 78.224 154.7301
2.210690 78.347 154.2542
2.226710 78.469 153.7756
2.242845 78.591 153.2946
2.259098 78.712 152.8112
2.275468 78.832 152.3256
2.291957 78.952 151.8378
2.308566 79.071 151.3483
2.325295 79.189 150.8572
2.342145 79.307 150.3646
2.359117 79.424 149.8707
2.376212 79.541 149.3758
2.393431 79.657 148.8799
2.410775 79.772 148.3832
2.428244 79.888 147.8857
2.445840 80.002 147.3875
2.463564 80.117 146.8887
2.481416 80.231 146.3892
2.499397 80.344 145.8888
2.517509 80.457 145.3876
2.535752 80.570 144.8852
2.554127 80.682 144.3813
2.572635 80.794 143.8755
2.591277 80.906 143.3676
2.610055 81.016 142.8571
2.628968 81.126 142.3441
2.648019 81.235 141.8287
2.667208 81.344 141.3111
2.686535 81.452 140.7915
2.706003 81.559 140.2703
2.725612 81.665 139.7476
2.745363 81.771 139.2239
2.765257 81.876 138.6995
2.785295 81.980 138.1744
2.805478 82.084 137.6492
2.825808 82.188 137.1238
2.846285 82.291 136.5984
2.866910 82.393 136.0731
2.887685 82.495 135.5476
2.908611 82.597 135.0218
2.929688 82.698 134.4951
2.950917 82.798 133.9672
2.972301 82.898 133.4374
2.993839 82.997 132.9057
3.015534 83.095 132.3719
3.037386 83.193 131.8362
3.059396 83.289 131.2989
3.081565 83.385 130.7603
3.103896 83.480 130.2208
3.126388 83.575 129.6808
3.149043 83.669 129.1408
3.171862 83.762 128.6010
3.194847 83.855 128.0619
3.217998 83.947 127.5235
3.241317 84.039 126.9861
3.264805 84.130 126.4494
3.288463 84.221 125.9131
3.312293 84.311 125.3769
3.336295 84.400 124.8402
3.360471 84.489 124.3026
3.384822 84.576 123.7641
3.409350 84.664 123.2245
3.434056 84.750 122.6842
3.458940 84.836 122.1434
3.484005 84.921 121.6024
3.509252 85.005 121.0616
3.534681 85.089 120.5213
3.560295 85.172 119.9819
3.586094 85.255 119.4435
3.612081 85.337 118.9062
3.638255 85.419 118.3699
3.664620 85.500 117.8343
3.691175 85.580 117.2990
3.717923 85.660 116.7636
3.744864 85.739 116.2280
3.772001 85.818 115.6919
3.799335 85.896 115.1556
3.826866 85.973 114.6193
3.854597 86.050 114.0831
3.882529 86.126 113.5476
3.910664 86.201 113.0129
3.939002 86.276 112.4793
3.967546 86.351 111.9470
3.996296 86.424 111.4158
4.025255 86.498 110.8858
4.054423 86.571 110.3566
4.083804 86.643 109.8278
4.113396 86.715 109.2992
4.143204 86.786 108.7708
4.173227 86.856 108.2426
4.203468 86.926 107.7149
4.233928 86.996 107.1877
4.264609 87.064 106.6613
4.295512 87.133 106.1359
4.326639 87.200 105.6117
4.357992 87.268 105.0885
4.389572 87.335 104.5664
4.421380 87.401 104.0451
4.453419 87.466 103.5244
4.485691 87.532 103.0040
4.518196 87.596 102.4839
4.550936 87.660 101.9644
4.583914 87.723 101.4455
4.617131 87.786 100.9275
4.650589 87.848 100.4105
4.684289 87.910 99.8949
4.718233 87.971 99.3806
4.752424 88.032 98.8675
4.786862 88.092 98.3555
4.821549 88.152 97.8444
4.856488 88.211 97.3340
4.891680 88.269 96.8244
4.927127 88.327 96.3157
4.962831 88.385 95.8082
4.998794 88.441 95.3020
5.035017 88.498 94.7973
5.071503 88.553 94.2944
5.108253 88.608 93.7932
5.145270 88.663 93.2937
5.182555 88.717 92.7956
5.220110 88.771 92.2990
5.257937 88.824 91.8037
5.296038 88.876 91.3099
5.334415 88.928 90.8177
5.373071 88.980 90.3275
5.412006 89.031 89.8392
5.451224 89.081 89.3532
5.490725 89.132 88.8694
5.530514 89.181 88.3878
5.570590 89.231 87.9082
5.610957 89.279 87.4305
5.651616 89.328 86.9549
5.692570 89.376 86.4812
5.733821 89.423 86.0097
5.775370 89.470 85.5403
5.817221 89.517 85.0732
5.859375 89.564 84.6084
5.901834 89.610 84.1458
5.944602 89.656 83.6854
5.987679 89.702 83.2271
6.031068 89.747 82.7706
6.074771 89.792 82.3160
6.118792 89.837 81.8632
6.163131 89.882 81.4120
6.207792 89.927 80.9625
6.252776 89.971 80.5146
6.298086 90.015 80.0681
6.343725 90.059 79.6231
6.389694 90.103 79.1793
6.435996 90.146 78.7366
6.482634 90.190 78.2948
6.529610 90.233 77.8538
6.576926 90.276 77.4134
6.624585 90.319 76.9735
6.672590 90.362 76.5341
6.720942 90.404 76.0951
6.769645 90.446 75.6564
6.818700 90.488 75.2179
6.868111 90.530 74.7795
6.917881 90.571 74.3412
6.968010 90.612 73.9029
7.018504 90.653 73.4645
7.069362 90.693 73.0259
7.120590 90.733 72.5874
7.172189 90.772 72.1489
7.224161 90.811 71.7107
7.276511 90.850 71.2728
7.329239 90.888 70.8352
7.382350 90.925 70.3980
7.435845 90.962 69.9614
7.489729 90.998 69.5254
7.544002 91.034 69.0904
7.598669 91.069 68.6566
7.653732 91.104 68.2243
7.709194 91.138 67.7937
7.765058 91.172 67.3648
7.821327 91.205 66.9379
7.878004 91.237 66.5131
7.935091 91.269 66.0907
7.992592 91.300 65.6710
8.050510 91.331 65.2541
8.108847 91.362 64.8401
8.167607 91.392 64.4293
8.226793 91.421 64.0215
8.286408 91.451 63.6169
8.346454 91.480 63.2154
8.406936 91.508 62.8172
8.467856 91.537 62.4221
8.529218 91.565 62.0301
8.591024 91.593 61.6411
8.653278 91.621 61.2549
8.715983 91.649 60.8712
8.779143 91.677 60.4898
8.842760 91.705 60.1106
8.906839 91.733 59.7333
8.971381 91.761 59.3578
9.036392 91.789 58.9837
9.101873 91.816 58.6107
9.167829 91.844 58.2385
9.234263 91.871 57.8671
9.301178 91.899 57.4962
9.368578 91.926 57.1257
9.436467 91.953 56.7555
9.504847 91.980 56.3856
9.573723 92.007 56.0157
9.643099 92.033 55.6461
9.712976 92.059 55.2768
9.783361 92.084 54.9079
9.854255 92.110 54.5396
9.925663 92.134 54.1722
9.997588 92.158 53.8057
10.070035 92.182 53.4405
10.143007 92.205 53.0769
10.216507 92.228 52.7151
10.290540 92.250 52.3554
10.365109 92.272 51.9981
10.440219 92.294 51.6433
10.515873 92.315 51.2913
10.592076 92.336 50.9420
10.668830 92.356 50.5958
10.746141 92.377 50.2526
10.824012 92.397 49.9122
10.902447 92.417 49.5746
10.981451 92.437 49.2397
11.061027 92.457 48.9072
11.141180 92.477 48.5768
11.221913 92.496 48.2484
11.303232 92.516 47.9215
11.385140 92.536 47.5959
11.467641 92.556 47.2711
11.550741 92.576 46.9471
11.634442 92.596 46.6235
11.718750 92.616 46.3000
11.803669 92.636 45.9767
11.889203 92.656 45.6532
11.975357 92.675 45.3297
12.062136 92.694 45.0063
12.149543 92.713 44.6830
12.237583 92.732 44.3599
12.326262 92.750 44.0373
12.415583 92.768 43.7155
12.505552 92.785 43.3947
12.596172 92.803 43.0750
12.687449 92.820 42.7567
12.779387 92.836 42.4401
12.871992 92.853 42.1252
12.965268 92.869 41.8120
13.059220 92.885 41.5005
13.153852 92.901 41.1906
13.249170 92.917 40.8821
13.345179 92.933 40.5749
13.441884 92.948 40.2685
13.539289 92.964 39.9628
13.637401 92.980 39.6573
13.736223 92.996 39.3520
13.835761 93.011 39.0463
13.936021 93.027 38.7403
14.037007 93.042 38.4339
14.138725 93.057 38.1270
14.241180 93.071 37.8198
14.344377 93.086 37.5126
14.448323 93.099 37.2058
14.553021 93.113 36.8997
14.658478 93.125 36.5948
14.764700 93.138 36.2917
14.871691 93.149 35.9910
14.979457 93.161 35.6930
15.088005 93.172 35.3983
15.197339 93.182 35.1070
15.307465 93.193 34.8195
15.418389 93.203 34.5358
15.530117 93.214 34.2557
15.642655 93.224 33.9792
15.756008 93.235 33.7058
15.870182 93.245 33.4350
15.985184 93.257 33.1665
16.101019 93.268 32.8996
16.217694 93.279 32.6339
16.335214 93.291 32.3689
16.453586 93.303 32.1042
16.572815 93.315 31.8395
16.692909 93.327 31.5748
16.813872 93.339 31.3099
16.935713 93.351 31.0449
17.058436 93.363 30.7799
17.182048 93.375 30.5152
17.306556 93.386 30.2510
17.431967 93.398 29.9875
17.558286 93.409 29.7248
17.685521 93.420 29.4631
17.813677 93.431 29.2023
17.942762 93.442 28.9425
18.072783 93.453 28.6834
18.203746 93.464 28.4250
18.335658 93.474 28.1669
18.468526 93.485 27.9090
18.602356 93.495 27.6511
18.737156 93.506 27.3931
18.872934 93.516 27.1351
19.009695 93.526 26.8772
19.147447 93.535 26.6195
19.286197 93.544 26.3625
19.425953 93.553 26.1066
19.566721 93.561 25.8521
19.708510 93.569 25.5994
19.851326 93.576 25.3489
19.995177 93.583 25.1010
20.140070 93.591 24.8556
20.286013 93.598 24.6127
20.433014 93.605 24.3722
20.581080 93.612 24.1337
20.730219 93.619 23.8966
20.880439 93.626 23.6606
21.031747 93.633 23.4251
21.184152 93.641 23.1896
21.337661 93.648 22.9536
21.492282 93.656 22.7170
21.648024 93.663 22.4799
21.804895 93.670 22.2422
21.962902 93.677 22.0042
22.122054 93.683 21.7665
22.282360 93.690 21.5293
22.443827 93.696 21.2933
22.606464 93.701 21.0585
22.770280 93.707 20.8253
22.935283 93.713 20.5934
23.101481 93.718 20.3624
23.268884 93.724 20.1320
23.437500 93.730 19.9014
23.607338 93.736 19.6699
23.778406 93.742 19.4371
23.950714 93.748 19.2027
24.124271 93.754 18.9666
24.299086 93.759 18.7292
24.475167 93.764 18.4915
24.652524 93.768 18.2542
24.831166 93.771 18.0186
25.011103 93.774 17.7856
25.192344 93.777 17.5563
25.374898 93.780 17.3309
25.558775 93.782 17.1093
25.743984 93.785 16.8909
25.930536 93.788 16.6748
26.118439 93.792 16.4596
26.307704 93.795 16.2441
26.498341 93.799 16.0275
26.690359 93.803 15.8090
26.883768 93.807 15.5887
27.078579 93.811 15.3673
27.274801 93.814 15.1456
27.472446 93.816 14.9247
27.671522 93.818 14.7059
27.872042 93.820 14.4899
28.074014 93.821 14.2769
28.277450 93.822 14.0668
28.482360 93.824 13.8590
28.688755 93.826 13.6525
28.896645 93.828 13.4464
29.106042 93.830 13.2403
29.316957 93.832 13.0338
29.529400 93.833 12.8271
29.743382 93.835 12.6208
29.958915 93.836 12.4154
30.176009 93.837 12.2114
30.394677 93.838 12.0089
30.614929 93.840 11.8076
30.836778 93.841 11.6067
31.060234 93.843 11.4054
31.285309 93.845 11.2029
31.512015 93.846 10.9987
31.740364 93.848 10.7927
31.970368 93.849 10.5856
32.202039 93.850 10.3782
32.435388 93.850 10.1713
32.670428 93.850 9.9658
32.907171 93.850 9.7617
33.145630 93.850 9.5587
33.385817 93.850 9.3564
33.627745 93.850 9.1542
33.871425 93.850 8.9518
34.116871 93.850 8.7494
34.364096 93.849 8.5479
34.613113 93.848 8.3481
34.863934 93.846 8.1511
35.116572 93.845 7.9570
35.371041 93.844 7.7655
35.627354 93.843 7.5751
35.885525 93.843 7.3846
36.145566 93.842 7.1927
36.407492 93.842 6.9990
36.671316 93.841 6.8043
36.937051 93.840 6.6101
37.204712 93.838 6.4181
37.474313 93.836 6.2295
37.745867 93.834 6.0443
38.019389 93.832 5.8611
38.294893 93.831 5.6777
38.572394 93.830 5.4918
38.851905 93.830 5.3019
39.133442 93.828 5.1084
39.417019 93.826 4.9128
39.702651 93.823 4.7179
39.990353 93.819 4.5259
40.280140 93.815 4.3379
40.572026 93.811 4.1534
40.866028 93.807 3.9707
41.162160 93.804 3.7874
41.460438 93.800 3.6023
41.760877 93.796 3.4153
42.063494 93.792 3.2278
42.368303 93.787 3.0420
42.675322 93.783 2.8593
42.984565 93.778 2.6797
43.296048 93.774 2.5015
43.609789 93.771 2.3218
43.925804 93.768 2.1381
44.244108 93.766 1.9490
44.564719 93.763 1.7555
44.887654 93.760 1.5596
45.212928 93.756 1.3636
45.540560 93.753 1.1685
45.870565 93.750 0.9724
46.202962 93.747 0.7725
46.537768 93.744 0.5662
46.875000 93.740 0.3531
47.214676 93.734 0.1375
47.556813 93.726 -0.0736
47.901429 93.716 -0.2720
48.248542 93.705 -0.4519
48.598171 93.694 -0.6128
48.950334 93.685 -0.7594
49.305048 93.679 -0.8999
49.662333 93.674 -1.0422
50.022206 93.670 -1.1913
50.384688 93.666 -1.3481
50.749796 93.662 -1.5109
51.117550 93.658 -1.6768
51.487969 93.652 -1.8439
51.861072 93.646 -2.0115
52.236879 93.639 -2.1796
52.615409 93.632 -2.3479
52.996681 93.625 -2.5159
53.380717 93.617 -2.6832
53.767536 93.609 -2.8502
54.157158 93.601 -3.0177
54.549603 93.593 -3.1871
54.944892 93.585 -3.3587
55.343045 93.577 -3.5321
55.744084 93.569 -3.7062
56.148028 93.560 -3.8799
56.554900 93.551 -4.0527
56.964720 93.542 -4.2244
57.377510 93.533 -4.3950
57.793291 93.524 -4.5643
58.212085 93.515 -4.7321
58.633914 93.507 -4.8982
59.058799 93.498 -5.0636
59.486764 93.490 -5.2299
59.917829 93.481 -5.3983
60.352019 93.472 -5.5695
60.789354 93.463 -5.7423
61.229859 93.453 -5.9155
61.673556 93.443 -6.0881
62.120468 93.432 -6.2597
62.570618 93.421 -6.4307
63.024031 93.410 -6.6013
63.480729 93.399 -6.7712
63.940736 93.387 -6.9401
64.404077 93.375 -7.1075
64.870776 93.363 -7.2738
65.340856 93.352 -7.4391
65.814343 93.340 -7.6037
66.291261 93.329 -7.7681
66.771635 93.317 -7.9324
67.255489 93.306 -8.0968
67.742850 93.294 -8.2605
68.233743 93.282 -8.4229
68.728193 93.270 -8.5836
69.226226 93.257 -8.7435
69.727867 93.245 -8.9031
70.233144 93.232 -9.0626
70.742083 93.219 -9.2225
71.254709 93.206 -9.3829
71.771050 93.192 -9.5441
72.291132 93.179 -9.7057
72.814984 93.165 -9.8668
73.342631 93.151 -10.0269
73.874102 93.137 -10.1863
74.409424 93.122 -10.3461
74.948626 93.108 -10.5064
75.491734 93.094 -10.6670
76.038779 93.079 -10.8274
76.589787 93.064 -10.9871
77.144788 93.049 -11.1455
77.703811 93.033 -11.3021
78.266885 93.017 -11.4562
78.834039 93.001 -11.6082
79.405303 92.985 -11.7594
79.980706 92.969 -11.9114
80.560280 92.952 -12.0645
81.144053 92.936 -12.2183
81.732056 92.919 -12.3724
82.324320 92.902 -12.5267
82.920876 92.885 -12.6810
83.521755 92.868 -12.8342
84.126988 92.850 -12.9858
84.736607 92.833 -13.1364
85.350643 92.815 -13.2864
85.969129 92.797 -13.4359
86.592097 92.778 -13.5844
87.219579 92.760 -13.7316
87.851608 92.741 -13.8779
88.488217 92.722 -14.0243
89.129439 92.703 -14.1713
89.775308 92.684 -14.3189
90.425856 92.664 -14.4671
91.081119 92.645 -14.6165
91.741131 92.625 -14.7673
92.405925 92.605 -14.9189
93.075536 92.584 -15.0697
93.750000 92.564 -15.2185
94.429351 92.543 -15.3654
95.113625 92.521 -15.5101
95.802858 92.499 -15.6515
96.497085 92.477 -15.7885
97.196342 92.455 -15.9210
97.900667 92.432 -16.0503
98.610096 92.410 -16.1771
99.324665 92.387 -16.3022
100.044413 92.365 -16.4274
100.769376 92.343 -16.5547
101.499592 92.321 -16.6857
