* Measurement data measured by REW V5.31.3
* Source: Headset (CX31993 HIFI AUDIO), MICROPHONE (Master Volume), R, volume: 0.250
* Format: 256k Log Swept Sine, 1 sweep at -12.0 dBFS with no timing reference
* Dated: 12 31, 24 1:04:46 PM
* REW Settings:
*  C-weighting compensation: Off
*  Target level: 75.0 dB
* Note: ; 
* Measurement: Sony LB 16K MAX L
* Smoothing: 1/12 octave
* Frequency Step: 96 ppo
* Start Frequency: 0.36621094 Hz
*
* Freq(Hz) SPL(dB) Phase(degrees)
0.366211 31.913 -177.9085
0.368865 31.922 -177.8594
0.371538 31.935 -177.7866
0.374230 31.951 -177.6962
0.376942 31.969 -177.5937
0.379673 31.988 -177.4830
0.382424 32.008 -177.3667
0.385196 32.029 -177.2464
0.387987 32.050 -177.1230
0.390798 32.071 -176.9970
0.393630 32.093 -176.8685
0.396483 32.114 -176.7378
0.399356 32.136 -176.6048
0.402250 32.158 -176.4695
0.405165 32.180 -176.3319
0.408101 32.202 -176.1920
0.411058 32.225 -176.0497
0.414037 32.247 -175.9049
0.417037 32.270 -175.7577
0.420059 32.293 -175.6080
0.423103 32.316 -175.4557
0.426169 32.339 -175.3007
0.429257 32.363 -175.1431
0.432368 32.386 -174.9827
0.435501 32.410 -174.8196
0.438656 32.434 -174.6536
0.441835 32.458 -174.4848
0.445037 32.482 -174.3130
0.448262 32.507 -174.1382
0.451510 32.532 -173.9604
0.454782 32.556 -173.7795
0.458077 32.581 -173.5955
0.461397 32.607 -173.4084
0.464740 32.632 -173.2180
0.468108 32.657 -173.0243
0.471500 32.683 -172.8273
0.474917 32.709 -172.6270
0.478358 32.735 -172.4233
0.481825 32.762 -172.2161
0.485316 32.788 -172.0055
0.488833 32.815 -171.7914
0.492375 32.842 -171.5737
0.495943 32.869 -171.3524
0.499537 32.896 -171.1276
0.503157 32.923 -170.8991
0.506803 32.951 -170.6670
0.510475 32.979 -170.4312
0.514175 33.007 -170.1917
0.517900 33.035 -169.9485
0.521653 33.064 -169.7017
0.525434 33.092 -169.4511
0.529241 33.121 -169.1968
0.533076 33.150 -168.9388
0.536939 33.180 -168.6772
0.540830 33.209 -168.4118
0.544749 33.239 -168.1428
0.548696 33.269 -167.8702
0.552673 33.299 -167.5940
0.556677 33.329 -167.3143
0.560711 33.360 -167.0311
0.564774 33.391 -166.7444
0.568867 33.422 -166.4543
0.572989 33.453 -166.1609
0.577141 33.485 -165.8643
0.581324 33.516 -165.5645
0.585536 33.548 -165.2617
0.589779 33.581 -164.9559
0.594053 33.613 -164.6472
0.598358 33.646 -164.3358
0.602694 33.679 -164.0218
0.607061 33.712 -163.7053
0.611460 33.745 -163.3865
0.615891 33.779 -163.0655
0.620354 33.813 -162.7425
0.624849 33.847 -162.4176
0.629377 33.881 -162.0911
0.633938 33.916 -161.7630
0.638532 33.950 -161.4337
0.643159 33.986 -161.1033
0.647819 34.021 -160.7719
0.652514 34.057 -160.4399
0.657242 34.092 -160.1075
0.662005 34.129 -159.7749
0.666802 34.165 -159.4422
0.671634 34.202 -159.1099
0.676501 34.239 -158.7780
0.681403 34.276 -158.4469
0.686341 34.313 -158.1168
0.691314 34.351 -157.7879
0.696324 34.390 -157.4605
0.701370 34.429 -157.1349
0.706452 34.469 -156.8111
0.711571 34.510 -156.4892
0.716728 34.553 -156.1694
0.721921 34.599 -155.8514
0.727153 34.649 -155.5347
0.732422 34.705 -155.2190
0.737729 34.767 -154.9033
0.743075 34.834 -154.5870
0.748460 34.907 -154.2696
0.753883 34.984 -153.9507
0.759346 35.064 -153.6304
0.764849 35.148 -153.3087
0.770391 35.235 -152.9858
0.775974 35.324 -152.6622
0.781597 35.416 -152.3382
0.787261 35.510 -152.0142
0.792966 35.606 -151.6905
0.798712 35.705 -151.3676
0.804500 35.806 -151.0459
0.810329 35.910 -150.7258
0.816201 36.016 -150.4078
0.822116 36.124 -150.0921
0.828073 36.234 -149.7794
0.834074 36.347 -149.4699
0.840118 36.462 -149.1640
0.846206 36.579 -148.8622
0.852338 36.698 -148.5649
0.858514 36.819 -148.2724
0.864735 36.942 -147.9852
0.871001 37.067 -147.7036
0.877313 37.194 -147.4279
0.883670 37.323 -147.1586
0.890074 37.454 -146.8960
0.896524 37.587 -146.6404
0.903020 37.721 -146.3922
0.909564 37.857 -146.1518
0.916155 37.995 -145.9193
0.922794 38.134 -145.6952
0.929481 38.275 -145.4797
0.936216 38.417 -145.2731
0.943000 38.560 -145.0758
0.949834 38.705 -144.8879
0.956717 38.851 -144.7097
0.963649 38.997 -144.5415
0.970632 39.145 -144.3835
0.977666 39.294 -144.2360
0.984750 39.443 -144.0990
0.991886 39.593 -143.9729
0.999074 39.744 -143.8579
1.006314 39.895 -143.7540
1.013606 40.046 -143.6615
1.020951 40.197 -143.5805
1.028349 40.349 -143.5112
1.035801 40.500 -143.4536
1.043307 40.651 -143.4078
1.050867 40.802 -143.3739
1.058482 40.952 -143.3517
1.066152 41.102 -143.3411
1.073878 41.251 -143.3417
1.081660 41.399 -143.3527
1.089498 41.547 -143.3731
1.097393 41.695 -143.4013
1.105345 41.842 -143.4356
1.113355 41.990 -143.4743
1.121423 42.139 -143.5159
1.129549 42.288 -143.5596
1.137734 42.437 -143.6050
1.145979 42.588 -143.6518
1.154283 42.740 -143.7001
1.162647 42.892 -143.7503
1.171072 43.045 -143.8025
1.179558 43.199 -143.8572
1.188106 43.354 -143.9145
1.196715 43.510 -143.9750
1.205387 43.667 -144.0388
1.214122 43.825 -144.1064
1.222920 43.983 -144.1781
1.231782 44.142 -144.2541
1.240708 44.301 -144.3349
1.249699 44.462 -144.4205
1.258754 44.622 -144.5115
1.267876 44.784 -144.6079
1.277063 44.946 -144.7102
1.286318 45.109 -144.8185
1.295639 45.272 -144.9331
1.305027 45.435 -145.0543
1.314484 45.599 -145.1823
1.324009 45.763 -145.3174
1.333604 45.927 -145.4596
1.343268 46.092 -145.6094
1.353002 46.257 -145.7669
1.362806 46.422 -145.9324
1.372681 46.587 -146.1059
1.382628 46.752 -146.2877
1.392647 46.917 -146.4780
1.402739 47.082 -146.6768
1.412904 47.247 -146.8842
1.423142 47.412 -147.1001
1.433455 47.576 -147.3242
1.443843 47.740 -147.5560
1.454305 47.904 -147.7945
1.464844 48.068 -148.0386
1.475459 48.231 -148.2866
1.486150 48.394 -148.5372
1.496920 48.556 -148.7893
1.507767 48.719 -149.0423
1.518693 48.881 -149.2959
1.529698 49.043 -149.5501
1.540783 49.204 -149.8051
1.551948 49.366 -150.0612
1.563194 49.527 -150.3189
1.574521 49.688 -150.5784
1.585931 49.849 -150.8403
1.597423 50.010 -151.1049
1.608999 50.170 -151.3726
1.620658 50.330 -151.6439
1.632402 50.490 -151.9192
1.644232 50.650 -152.1988
1.656146 50.810 -152.4831
1.668147 50.970 -152.7726
1.680235 51.129 -153.0676
1.692411 51.289 -153.3684
1.704675 51.448 -153.6755
1.717028 51.608 -153.9892
1.729470 51.767 -154.3098
1.742003 51.926 -154.6377
1.754626 52.086 -154.9731
1.767341 52.245 -155.3162
1.780147 52.404 -155.6672
1.793047 52.563 -156.0260
1.806040 52.722 -156.3924
1.819128 52.882 -156.7658
1.832310 53.041 -157.1454
1.845587 53.199 -157.5302
1.858961 53.357 -157.9191
1.872432 53.515 -158.3113
1.886001 53.673 -158.7062
1.899667 53.830 -159.1033
1.913433 53.986 -159.5024
1.927299 54.142 -159.9035
1.941265 54.297 -160.3066
1.955332 54.452 -160.7118
1.969501 54.607 -161.1191
1.983773 54.761 -161.5288
1.998148 54.915 -161.9408
2.012627 55.068 -162.3555
2.027212 55.221 -162.7731
2.041902 55.374 -163.1936
2.056698 55.526 -163.6174
2.071602 55.678 -164.0446
2.086614 55.830 -164.4756
2.101734 55.981 -164.9105
2.116964 56.133 -165.3495
2.132304 56.284 -165.7930
2.147756 56.435 -166.2410
2.163320 56.586 -166.6936
2.178996 56.737 -167.1509
2.194786 56.887 -167.6125
2.210690 57.037 -168.0783
2.226710 57.187 -168.5477
2.242845 57.336 -169.0204
2.259098 57.484 -169.4959
2.275468 57.632 -169.9739
2.291957 57.779 -170.4542
2.308566 57.925 -170.9366
2.325295 58.071 -171.4208
2.342145 58.216 -171.9068
2.359117 58.361 -172.3946
2.376212 58.505 -172.8840
2.393431 58.649 -173.3751
2.410775 58.792 -173.8678
2.428244 58.935 -174.3622
2.445840 59.077 -174.8584
2.463564 59.219 -175.3564
2.481416 59.361 -175.8564
2.499397 59.502 -176.3585
2.517509 59.643 -176.8629
2.535752 59.784 -177.3697
2.554127 59.924 -177.8792
2.572635 60.064 -178.3914
2.591277 60.203 -178.9065
2.610055 60.342 -179.4243
2.628968 60.480 -179.9447
2.648019 60.617 179.5324
2.667208 60.753 179.0075
2.686535 60.889 178.4808
2.706003 61.024 177.9526
2.725612 61.158 177.4233
2.745363 61.292 176.8930
2.765257 61.425 176.3620
2.785295 61.558 175.8305
2.805478 61.690 175.2987
2.825808 61.822 174.7667
2.846285 61.953 174.2345
2.866910 62.084 173.7022
2.887685 62.215 173.1696
2.908611 62.345 172.6365
2.929688 62.474 172.1027
2.950917 62.603 171.5677
2.972301 62.732 171.0314
2.993839 62.859 170.4936
3.015534 62.986 169.9543
3.037386 63.112 169.4139
3.059396 63.238 168.8725
3.081565 63.363 168.3305
3.103896 63.487 167.7882
3.126388 63.611 167.2460
3.149043 63.734 166.7042
3.171862 63.856 166.1631
3.194847 63.978 165.6229
3.217998 64.100 165.0838
3.241317 64.221 164.5458
3.264805 64.342 164.0089
3.288463 64.463 163.4728
3.312293 64.583 162.9373
3.336295 64.702 162.4020
3.360471 64.821 161.8667
3.384822 64.940 161.3312
3.409350 65.057 160.7957
3.434056 65.174 160.2602
3.458940 65.291 159.7251
3.484005 65.407 159.1905
3.509252 65.522 158.6567
3.534681 65.637 158.1240
3.560295 65.752 157.5925
3.586094 65.866 157.0625
3.612081 65.980 156.5339
3.638255 66.094 156.0069
3.664620 66.208 155.4811
3.691175 66.321 154.9564
3.717923 66.434 154.4326
3.744864 66.546 153.9096
3.772001 66.658 153.3871
3.799335 66.769 152.8652
3.826866 66.880 152.3440
3.854597 66.990 151.8234
3.882529 67.101 151.3036
3.910664 67.211 150.7845
3.939002 67.320 150.2664
3.967546 67.430 149.7491
3.996296 67.539 149.2327
4.025255 67.648 148.7171
4.054423 67.757 148.2022
4.083804 67.865 147.6879
4.113396 67.974 147.1740
4.143204 68.082 146.6605
4.173227 68.189 146.1473
4.203468 68.296 145.6342
4.233928 68.403 145.1213
4.264609 68.510 144.6084
4.295512 68.616 144.0954
4.326639 68.722 143.5823
4.357992 68.828 143.0688
4.389572 68.934 142.5550
4.421380 69.039 142.0406
4.453419 69.144 141.5258
4.485691 69.249 141.0103
4.518196 69.353 140.4941
4.550936 69.457 139.9774
4.583914 69.560 139.4601
4.617131 69.663 138.9422
4.650589 69.766 138.4236
4.684289 69.868 137.9042
4.718233 69.970 137.3839
4.752424 70.071 136.8625
4.786862 70.172 136.3398
4.821549 70.272 135.8158
4.856488 70.372 135.2905
4.891680 70.471 134.7639
4.927127 70.569 134.2364
4.962831 70.667 133.7082
4.998794 70.764 133.1794
5.035017 70.860 132.6504
5.071503 70.956 132.1210
5.108253 71.050 131.5913
5.145270 71.144 131.0609
5.182555 71.237 130.5298
5.220110 71.330 129.9978
5.257937 71.421 129.4653
5.296038 71.512 128.9327
5.334415 71.601 128.4005
5.373071 71.690 127.8693
5.412006 71.777 127.3394
5.451224 71.864 126.8111
5.490725 71.950 126.2845
5.530514 72.034 125.7592
5.570590 72.118 125.2353
5.610957 72.200 124.7129
5.651616 72.282 124.1923
5.692570 72.362 123.6741
5.733821 72.441 123.1590
5.775370 72.520 122.6476
5.817221 72.597 122.1405
5.859375 72.674 121.6376
5.901834 72.749 121.1391
5.944602 72.824 120.6447
5.987679 72.897 120.1547
6.031068 72.970 119.6692
6.074771 73.041 119.1887
6.118792 73.112 118.7137
6.163131 73.183 118.2448
6.207792 73.252 117.7822
6.252776 73.321 117.3260
6.298086 73.389 116.8762
6.343725 73.457 116.4326
6.389694 73.524 115.9953
6.435996 73.591 115.5642
6.482634 73.657 115.1396
6.529610 73.723 114.7214
6.576926 73.789 114.3098
6.624585 73.855 113.9047
6.672590 73.920 113.5062
6.720942 73.986 113.1138
6.769645 74.051 112.7273
6.818700 74.117 112.3463
6.868111 74.182 111.9705
6.917881 74.248 111.5996
6.968010 74.314 111.2334
7.018504 74.380 110.8717
7.069362 74.447 110.5142
7.120590 74.514 110.1606
7.172189 74.581 109.8102
7.224161 74.648 109.4625
7.276511 74.716 109.1170
7.329239 74.784 108.7733
7.382350 74.852 108.4312
7.435845 74.920 108.0904
7.489729 74.989 107.7505
7.544002 75.059 107.4111
7.598669 75.128 107.0717
7.653732 75.198 106.7321
7.709194 75.267 106.3917
7.765058 75.337 106.0505
7.821327 75.407 105.7083
7.878004 75.478 105.3649
7.935091 75.548 105.0202
7.992592 75.618 104.6739
8.050510 75.688 104.3258
8.108847 75.758 103.9760
8.167607 75.828 103.6242
8.226793 75.898 103.2706
8.286408 75.967 102.9150
8.346454 76.037 102.5575
8.406936 76.106 102.1981
8.467856 76.175 101.8367
8.529218 76.244 101.4734
8.591024 76.312 101.1081
8.653278 76.380 100.7408
8.715983 76.448 100.3717
8.779143 76.515 100.0007
8.842760 76.582 99.6278
8.906839 76.649 99.2530
8.971381 76.715 98.8763
9.036392 76.781 98.4977
9.101873 76.846 98.1171
9.167829 76.912 97.7347
9.234263 76.976 97.3504
9.301178 77.040 96.9642
9.368578 77.104 96.5762
9.436467 77.168 96.1864
9.504847 77.230 95.7949
9.573723 77.293 95.4017
9.643099 77.354 95.0070
9.712976 77.415 94.6108
9.783361 77.476 94.2134
9.854255 77.536 93.8149
9.925663 77.595 93.4156
9.997588 77.654 93.0154
10.070035 77.713 92.6148
10.143007 77.770 92.2139
10.216507 77.827 91.8130
10.290540 77.884 91.4123
10.365109 77.940 91.0119
10.440219 77.995 90.6121
10.515873 78.051 90.2128
10.592076 78.105 89.8144
10.668830 78.160 89.4169
10.746141 78.214 89.0202
10.824012 78.268 88.6244
10.902447 78.321 88.2293
10.981451 78.375 87.8349
11.061027 78.428 87.4409
11.141180 78.481 87.0473
11.221913 78.534 86.6538
11.303232 78.587 86.2601
11.385140 78.640 85.8660
11.467641 78.692 85.4713
11.550741 78.745 85.0757
11.634442 78.798 84.6793
11.718750 78.850 84.2816
11.803669 78.902 83.8828
11.889203 78.954 83.4828
11.975357 79.006 83.0818
12.062136 79.057 82.6797
12.149543 79.108 82.2770
12.237583 79.158 81.8737
12.326262 79.208 81.4703
12.415583 79.258 81.0671
12.505552 79.307 80.6645
12.596172 79.356 80.2628
12.687449 79.404 79.8624
12.779387 79.452 79.4636
12.871992 79.500 79.0667
12.965268 79.548 78.6719
13.059220 79.595 78.2792
13.153852 79.643 77.8886
13.249170 79.690 77.5002
13.345179 79.737 77.1136
13.441884 79.785 76.7285
13.539289 79.832 76.3447
13.637401 79.880 75.9616
13.736223 79.927 75.5789
13.835761 79.975 75.1961
13.936021 80.023 74.8127
14.037007 80.071 74.4283
14.138725 80.119 74.0426
14.241180 80.167 73.6553
14.344377 80.214 73.2664
14.448323 80.262 72.8759
14.553021 80.308 72.4839
14.658478 80.354 72.0907
14.764700 80.400 71.6967
14.871691 80.445 71.3025
14.979457 80.489 70.9086
15.088005 80.532 70.5160
15.197339 80.574 70.1252
15.307465 80.616 69.7372
15.418389 80.657 69.3526
15.530117 80.697 68.9724
15.642655 80.736 68.5971
15.756008 80.775 68.2273
15.870182 80.813 67.8633
15.985184 80.852 67.5054
16.101019 80.890 67.1535
16.217694 80.928 66.8072
16.335214 80.967 66.4659
16.453586 81.006 66.1288
16.572815 81.046 65.7947
16.692909 81.087 65.4623
16.813872 81.128 65.1298
16.935713 81.170 64.7957
17.058436 81.213 64.4580
17.182048 81.256 64.1152
17.306556 81.300 63.7656
17.431967 81.343 63.4081
17.558286 81.387 63.0417
17.685521 81.430 62.6660
17.813677 81.472 62.2812
17.942762 81.513 61.8880
18.072783 81.552 61.4875
18.203746 81.589 61.0815
18.335658 81.624 60.6719
18.468526 81.657 60.2611
18.602356 81.688 59.8513
18.737156 81.717 59.4446
18.872934 81.744 59.0431
19.009695 81.769 58.6482
19.147447 81.793 58.2608
19.286197 81.816 57.8815
19.425953 81.838 57.5101
19.566721 81.860 57.1464
19.708510 81.881 56.7897
19.851326 81.902 56.4395
19.995177 81.922 56.0957
20.140070 81.941 55.7585
20.286013 81.960 55.4288
20.433014 81.978 55.1081
20.581080 81.996 54.7984
20.730219 82.013 54.5020
20.880439 82.030 54.2210
21.031747 82.048 53.9571
21.184152 82.066 53.7110
21.337661 82.087 53.4818
21.492282 82.111 53.2669
21.648024 82.139 53.0620
21.804895 82.171 52.8609
21.962902 82.208 52.6562
22.122054 82.249 52.4402
22.282360 82.294 52.2050
22.443827 82.343 51.9441
22.606464 82.393 51.6528
22.770280 82.444 51.3290
22.935283 82.493 50.9731
23.101481 82.541 50.5884
23.268884 82.585 50.1801
23.437500 82.626 49.7551
23.607338 82.662 49.3212
23.778406 82.694 48.8859
23.950714 82.723 48.4557
24.124271 82.748 48.0356
24.299086 82.772 47.6285
24.475167 82.794 47.2355
24.652524 82.816 46.8561
24.831166 82.837 46.4883
25.011103 82.859 46.1297
25.192344 82.881 45.7782
25.374898 82.903 45.4321
25.558775 82.926 45.0904
25.743984 82.948 44.7530
25.930536 82.971 44.4202
26.118439 82.993 44.0921
26.307704 83.017 43.7686
26.498341 83.040 43.4486
26.690359 83.065 43.1301
26.883768 83.091 42.8105
27.078579 83.118 42.4867
27.274801 83.145 42.1564
27.472446 83.172 41.8180
27.671522 83.198 41.4712
27.872042 83.224 41.1176
28.074014 83.248 40.7598
28.277450 83.270 40.4013
28.482360 83.290 40.0458
28.688755 83.309 39.6965
28.896645 83.327 39.3553
29.106042 83.344 39.0228
29.316957 83.362 38.6982
29.529400 83.380 38.3796
29.743382 83.398 38.0648
29.958915 83.418 37.7513
30.176009 83.437 37.4371
30.394677 83.457 37.1209
30.614929 83.477 36.8019
30.836778 83.496 36.4797
31.060234 83.516 36.1541
31.285309 83.534 35.8250
31.512015 83.552 35.4926
31.740364 83.570 35.1578
31.970368 83.585 34.8217
32.202039 83.600 34.4863
32.435388 83.613 34.1539
32.670428 83.625 33.8270
32.907171 83.637 33.5072
33.145630 83.648 33.1950
33.385817 83.659 32.8896
33.627745 83.671 32.5883
33.871425 83.684 32.2880
34.116871 83.697 31.9857
34.364096 83.710 31.6794
34.613113 83.723 31.3689
34.863934 83.736 31.0558
35.116572 83.747 30.7426
35.371041 83.758 30.4324
35.627354 83.768 30.1273
35.885525 83.778 29.8275
36.145566 83.789 29.5317
36.407492 83.800 29.2373
36.671316 83.812 28.9413
36.937051 83.825 28.6416
37.204712 83.838 28.3375
37.474313 83.850 28.0298
37.745867 83.861 27.7203
38.019389 83.872 27.4110
38.294893 83.883 27.1032
38.572394 83.893 26.7972
38.851905 83.903 26.4930
39.133442 83.912 26.1901
39.417019 83.921 25.8887
39.702651 83.929 25.5896
39.990353 83.937 25.2941
40.280140 83.945 25.0033
40.572026 83.952 24.7169
40.866028 83.960 24.4337
41.162160 83.968 24.1516
41.460438 83.976 23.8682
41.760877 83.983 23.5824
42.063494 83.990 23.2948
42.368303 83.996 23.0073
42.675322 84.001 22.7227
42.984565 84.005 22.4429
43.296048 84.010 22.1681
43.609789 84.014 21.8965
43.925804 84.020 21.6247
44.244108 84.025 21.3491
44.564719 84.031 21.0674
44.887654 84.036 20.7791
45.212928 84.040 20.4861
45.540560 84.043 20.1917
45.870565 84.045 19.8991
46.202962 84.046 19.6110
46.537768 84.046 19.3283
46.875000 84.047 19.0507
47.214676 84.048 18.7767
47.556813 84.049 18.5047
47.901429 84.051 18.2330
48.248542 84.053 17.9606
48.598171 84.055 17.6870
48.950334 84.057 17.4121
49.305048 84.059 17.1364
49.662333 84.060 16.8602
50.022206 84.061 16.5844
50.384688 84.062 16.3090
50.749796 84.063 16.0343
51.117550 84.064 15.7600
51.487969 84.064 15.4861
51.861072 84.064 15.2125
52.236879 84.063 14.9398
52.615409 84.062 14.6683
52.996681 84.061 14.3981
53.380717 84.059 14.1288
53.767536 84.057 13.8604
54.157158 84.054 13.5935
54.549603 84.050 13.3290
54.944892 84.046 13.0687
55.343045 84.042 12.8135
55.744084 84.038 12.5631
56.148028 84.034 12.3162
56.554900 84.030 12.0697
56.964720 84.027 11.8208
57.377510 84.024 11.5671
57.793291 84.021 11.3080
58.212085 84.016 11.0439
58.633914 84.011 10.7770
59.058799 84.004 10.5096
59.486764 83.997 10.2438
59.917829 83.989 9.9807
60.352019 83.980 9.7201
60.789354 83.973 9.4609
61.229859 83.965 9.2017
61.673556 83.958 8.9415
62.120468 83.951 8.6809
62.570618 83.944 8.4215
63.024031 83.937 8.1653
63.480729 83.932 7.9132
63.940736 83.927 7.6653
64.404077 83.923 7.4204
64.870776 83.921 7.1772
65.340856 83.920 6.9331
65.814343 83.919 6.6836
66.291261 83.918 6.4242
66.771635 83.916 6.1536
67.255489 83.911 5.8772
67.742850 83.901 5.6057
68.233743 83.889 5.3495
68.728193 83.875 5.1118
69.226226 83.860 4.8870
69.727867 83.846 4.6648
70.233144 83.831 4.4376
70.742083 83.814 4.2052
71.254709 83.795 3.9724
71.771050 83.775 3.7451
72.291132 83.755 3.5251
72.814984 83.735 3.3104
73.342631 83.717 3.0967
73.874102 83.699 2.8821
74.409424 83.681 2.6672
74.948626 83.664 2.4545
75.491734 83.647 2.2460
76.038779 83.631 2.0422
76.589787 83.615 1.8420
77.144788 83.599 1.6445
77.703811 83.584 1.4482
78.266885 83.568 1.2518
78.834039 83.552 1.0538
79.405303 83.535 0.8530
79.980706 83.517 0.6492
80.560280 83.498 0.4430
81.144053 83.478 0.2349
81.732056 83.458 0.0242
82.324320 83.438 -0.1898
82.920876 83.418 -0.4072
83.521755 83.397 -0.6270
84.126988 83.377 -0.8479
84.736607 83.357 -1.0679
85.350643 83.336 -1.2847
85.969129 83.314 -1.4955
86.592097 83.292 -1.6981
87.219579 83.270 -1.8920
87.851608 83.248 -2.0785
88.488217 83.226 -2.2608
89.129439 83.203 -2.4424
89.775308 83.180 -2.6259
90.425856 83.156 -2.8119
91.081119 83.131 -2.9985
91.741131 83.105 -3.1833
92.405925 83.078 -3.3645
93.075536 83.051 -3.5418
93.750000 83.024 -3.7157
94.429351 82.996 -3.8871
95.113625 82.969 -4.0562
95.802858 82.940 -4.2214
