* Measurement data measured by REW V5.31.3
* Source: Headset (CX31993 HIFI AUDIO), MICROPHONE (Master Volume), R, volume: 0.250
* Format: 256k Log Swept Sine, 1 sweep at -12.0 dBFS with no timing reference
* Dated: 12 31, 24 1:03:27 PM
* REW Settings:
*  C-weighting compensation: Off
*  Target level: 75.0 dB
* Note: ; 
* Measurement: Sony LB 2.5K MAX L
* Smoothing: 1/12 octave
* Frequency Step: 96 ppo
* Start Frequency: 0.36621094 Hz
*
* Freq(Hz) SPL(dB) Phase(degrees)
0.366211 33.287 150.2773
0.368865 33.303 150.2837
0.371538 33.327 150.2930
0.374230 33.357 150.3040
0.376942 33.391 150.3159
0.379673 33.427 150.3280
0.382424 33.464 150.3399
0.385196 33.502 150.3513
0.387987 33.541 150.3621
0.390798 33.581 150.3722
0.393630 33.621 150.3815
0.396483 33.661 150.3901
0.399356 33.701 150.3980
0.402250 33.742 150.4052
0.405165 33.783 150.4117
0.408101 33.825 150.4175
0.411058 33.866 150.4227
0.414037 33.909 150.4273
0.417037 33.951 150.4313
0.420059 33.994 150.4347
0.423103 34.036 150.4376
0.426169 34.080 150.4400
0.429257 34.123 150.4420
0.432368 34.167 150.4435
0.435501 34.211 150.4446
0.438656 34.256 150.4454
0.441835 34.301 150.4458
0.445037 34.346 150.4460
0.448262 34.392 150.4459
0.451510 34.437 150.4456
0.454782 34.484 150.4451
0.458077 34.530 150.4446
0.461397 34.577 150.4440
0.464740 34.624 150.4433
0.468108 34.672 150.4427
0.471500 34.720 150.4421
0.474917 34.768 150.4417
0.478358 34.816 150.4415
0.481825 34.865 150.4415
0.485316 34.915 150.4417
0.488833 34.964 150.4423
0.492375 35.014 150.4433
0.495943 35.065 150.4448
0.499537 35.115 150.4468
0.503157 35.166 150.4493
0.506803 35.218 150.4525
0.510475 35.270 150.4563
0.514175 35.322 150.4609
0.517900 35.374 150.4664
0.521653 35.427 150.4727
0.525434 35.481 150.4800
0.529241 35.535 150.4883
0.533076 35.589 150.4977
0.536939 35.643 150.5082
0.540830 35.698 150.5200
0.544749 35.753 150.5331
0.548696 35.809 150.5475
0.552673 35.865 150.5634
0.556677 35.922 150.5808
0.560711 35.979 150.5998
0.564774 36.036 150.6205
0.568867 36.094 150.6430
0.572989 36.152 150.6672
0.577141 36.211 150.6934
0.581324 36.270 150.7215
0.585536 36.329 150.7518
0.589779 36.389 150.7841
0.594053 36.449 150.8187
0.598358 36.510 150.8556
0.602694 36.571 150.8949
0.607061 36.633 150.9367
0.611460 36.695 150.9810
0.615891 36.758 151.0280
0.620354 36.821 151.0777
0.624849 36.884 151.1302
0.629377 36.948 151.1856
0.633938 37.013 151.2440
0.638532 37.077 151.3054
0.643159 37.143 151.3700
0.647819 37.208 151.4379
0.652514 37.275 151.5091
0.657242 37.342 151.5837
0.662005 37.409 151.6618
0.666802 37.476 151.7436
0.671634 37.545 151.8290
0.676501 37.613 151.9182
0.681403 37.683 152.0112
0.686341 37.752 152.1082
0.691314 37.823 152.2092
0.696324 37.893 152.3143
0.701370 37.964 152.4235
0.706452 38.036 152.5370
0.711571 38.108 152.6546
0.716728 38.181 152.7763
0.721921 38.254 152.9020
0.727153 38.327 153.0313
0.732422 38.401 153.1638
0.737729 38.474 153.2991
0.743075 38.548 153.4366
0.748460 38.623 153.5758
0.753883 38.697 153.7165
0.759346 38.772 153.8585
0.764849 38.848 154.0016
0.770391 38.923 154.1458
0.775974 39.000 154.2910
0.781597 39.076 154.4373
0.787261 39.154 154.5848
0.792966 39.231 154.7333
0.798712 39.310 154.8829
0.804500 39.388 155.0337
0.810329 39.467 155.1857
0.816201 39.547 155.3388
0.822116 39.627 155.4931
0.828073 39.708 155.6487
0.834074 39.789 155.8056
0.840118 39.871 155.9637
0.846206 39.953 156.1231
0.852338 40.035 156.2838
0.858514 40.119 156.4459
0.864735 40.202 156.6093
0.871001 40.287 156.7741
0.877313 40.372 156.9403
0.883670 40.457 157.1079
0.890074 40.543 157.2769
0.896524 40.630 157.4473
0.903020 40.717 157.6192
0.909564 40.804 157.7925
0.916155 40.893 157.9673
0.922794 40.982 158.1436
0.929481 41.071 158.3214
0.936216 41.161 158.5006
0.943000 41.252 158.6814
0.949834 41.343 158.8637
0.956717 41.435 159.0475
0.963649 41.528 159.2328
0.970632 41.621 159.4196
0.977666 41.715 159.6080
0.984750 41.810 159.7979
0.991886 41.905 159.9893
0.999074 42.001 160.1823
1.006314 42.098 160.3767
1.013606 42.195 160.5727
1.020951 42.293 160.7702
1.028349 42.392 160.9691
1.035801 42.491 161.1696
1.043307 42.592 161.3716
1.050867 42.693 161.5751
1.058482 42.794 161.7800
1.066152 42.897 161.9865
1.073878 43.000 162.1945
1.081660 43.105 162.4041
1.089498 43.210 162.6153
1.097393 43.316 162.8283
1.105345 43.422 163.0432
1.113355 43.530 163.2600
1.121423 43.638 163.4788
1.129549 43.748 163.6994
1.137734 43.858 163.9219
1.145979 43.969 164.1460
1.154283 44.081 164.3715
1.162647 44.194 164.5981
1.171072 44.307 164.8257
1.179558 44.422 165.0540
1.188106 44.537 165.2827
1.196715 44.653 165.5115
1.205387 44.770 165.7403
1.214122 44.888 165.9688
1.222920 45.007 166.1967
1.231782 45.127 166.4237
1.240708 45.247 166.6496
1.249699 45.368 166.8742
1.258754 45.491 167.0971
1.267876 45.613 167.3182
1.277063 45.737 167.5372
1.286318 45.861 167.7538
1.295639 45.987 167.9679
1.305027 46.112 168.1791
1.314484 46.239 168.3871
1.324009 46.366 168.5919
1.333604 46.495 168.7931
1.343268 46.623 168.9905
1.353002 46.753 169.1839
1.362806 46.883 169.3730
1.372681 47.014 169.5577
1.382628 47.145 169.7377
1.392647 47.277 169.9129
1.402739 47.410 170.0831
1.412904 47.543 170.2482
1.423142 47.677 170.4082
1.433455 47.811 170.5631
1.443843 47.946 170.7134
1.454305 48.082 170.8593
1.464844 48.218 171.0017
1.475459 48.355 171.1414
1.486150 48.492 171.2792
1.496920 48.631 171.4155
1.507767 48.770 171.5508
1.518693 48.910 171.6850
1.529698 49.051 171.8179
1.540783 49.193 171.9494
1.551948 49.335 172.0791
1.563194 49.478 172.2066
1.574521 49.622 172.3316
1.585931 49.767 172.4535
1.597423 49.912 172.5722
1.608999 50.058 172.6871
1.620658 50.205 172.7979
1.632402 50.352 172.9043
1.644232 50.500 173.0058
1.656146 50.648 173.1021
1.668147 50.797 173.1929
1.680235 50.947 173.2777
1.692411 51.097 173.3564
1.704675 51.247 173.4286
1.717028 51.398 173.4939
1.729470 51.549 173.5521
1.742003 51.701 173.6030
1.754626 51.853 173.6463
1.767341 52.005 173.6819
1.780147 52.157 173.7099
1.793047 52.309 173.7303
1.806040 52.462 173.7436
1.819128 52.615 173.7504
1.832310 52.768 173.7517
1.845587 52.921 173.7487
1.858961 53.075 173.7423
1.872432 53.229 173.7332
1.886001 53.383 173.7218
1.899667 53.538 173.7080
1.913433 53.692 173.6917
1.927299 53.848 173.6724
1.941265 54.003 173.6498
1.955332 54.158 173.6234
1.969501 54.314 173.5927
1.983773 54.470 173.5571
1.998148 54.626 173.5163
2.012627 54.783 173.4697
2.027212 54.939 173.4168
2.041902 55.096 173.3573
2.056698 55.252 173.2906
2.071602 55.409 173.2165
2.086614 55.566 173.1344
2.101734 55.722 173.0441
2.116964 55.879 172.9453
2.132304 56.035 172.8378
2.147756 56.192 172.7215
2.163320 56.348 172.5967
2.178996 56.504 172.4637
2.194786 56.660 172.3234
2.210690 56.816 172.1767
2.226710 56.972 172.0246
2.242845 57.127 171.8678
2.259098 57.283 171.7069
2.275468 57.438 171.5421
2.291957 57.592 171.3734
2.308566 57.747 171.2005
2.325295 57.901 171.0234
2.342145 58.055 170.8417
2.359117 58.209 170.6551
2.376212 58.362 170.4632
2.393431 58.515 170.2658
2.410775 58.668 170.0624
2.428244 58.821 169.8528
2.445840 58.973 169.6367
2.463564 59.125 169.4137
2.481416 59.276 169.1837
2.499397 59.427 168.9463
2.517509 59.578 168.7015
2.535752 59.728 168.4494
2.554127 59.878 168.1902
2.572635 60.027 167.9244
2.591277 60.176 167.6525
2.610055 60.324 167.3749
2.628968 60.471 167.0923
2.648019 60.618 166.8049
2.667208 60.764 166.5129
2.686535 60.910 166.2166
2.706003 61.055 165.9160
2.725612 61.199 165.6110
2.745363 61.342 165.3019
2.765257 61.485 164.9884
2.785295 61.627 164.6706
2.805478 61.769 164.3483
2.825808 61.910 164.0216
2.846285 62.050 163.6902
2.866910 62.190 163.3541
2.887685 62.329 163.0131
2.908611 62.467 162.6671
2.929688 62.605 162.3160
2.950917 62.742 161.9598
2.972301 62.878 161.5985
2.993839 63.013 161.2325
3.015534 63.147 160.8619
3.037386 63.280 160.4871
3.059396 63.412 160.1085
3.081565 63.543 159.7264
3.103896 63.673 159.3412
3.126388 63.802 158.9532
3.149043 63.931 158.5628
3.171862 64.059 158.1701
3.194847 64.185 157.7753
3.217998 64.312 157.3785
3.241317 64.437 156.9798
3.264805 64.561 156.5789
3.288463 64.685 156.1755
3.312293 64.807 155.7694
3.336295 64.929 155.3602
3.360471 65.049 154.9479
3.384822 65.169 154.5324
3.409350 65.287 154.1141
3.434056 65.404 153.6934
3.458940 65.520 153.2709
3.484005 65.636 152.8472
3.509252 65.750 152.4226
3.534681 65.863 151.9979
3.560295 65.976 151.5733
3.586094 66.087 151.1492
3.612081 66.198 150.7256
3.638255 66.308 150.3026
3.664620 66.418 149.8799
3.691175 66.526 149.4569
3.717923 66.633 149.0333
3.744864 66.739 148.6090
3.772001 66.844 148.1840
3.799335 66.948 147.7586
3.826866 67.052 147.3331
3.854597 67.154 146.9080
3.882529 67.255 146.4839
3.910664 67.356 146.0612
3.939002 67.456 145.6404
3.967546 67.556 145.2217
3.996296 67.655 144.8053
4.025255 67.753 144.3911
4.054423 67.850 143.9788
4.083804 67.947 143.5681
4.113396 68.043 143.1587
4.143204 68.139 142.7506
4.173227 68.233 142.3437
4.203468 68.327 141.9382
4.233928 68.420 141.5343
4.264609 68.513 141.1322
4.295512 68.606 140.7321
4.326639 68.698 140.3343
4.357992 68.789 139.9387
4.389572 68.881 139.5456
4.421380 68.972 139.1547
4.453419 69.063 138.7659
4.485691 69.153 138.3791
4.518196 69.243 137.9940
4.550936 69.333 137.6103
4.583914 69.422 137.2280
4.617131 69.512 136.8468
4.650589 69.601 136.4667
4.684289 69.689 136.0874
4.718233 69.778 135.7091
4.752424 69.867 135.3316
4.786862 69.956 134.9549
4.821549 70.044 134.5790
4.856488 70.133 134.2038
4.891680 70.221 133.8289
4.927127 70.309 133.4543
4.962831 70.397 133.0795
4.998794 70.485 132.7043
5.035017 70.573 132.3283
5.071503 70.661 131.9513
5.108253 70.749 131.5731
5.145270 70.837 131.1937
5.182555 70.924 130.8129
5.220110 71.012 130.4309
5.257937 71.099 130.0476
5.296038 71.186 129.6628
5.334415 71.273 129.2764
5.373071 71.360 128.8883
5.412006 71.446 128.4984
5.451224 71.532 128.1064
5.490725 71.618 127.7122
5.530514 71.704 127.3157
5.570590 71.789 126.9170
5.610957 71.874 126.5161
5.651616 71.958 126.1132
5.692570 72.042 125.7085
5.733821 72.126 125.3022
5.775370 72.209 124.8944
5.817221 72.292 124.4853
5.859375 72.374 124.0748
5.901834 72.455 123.6629
5.944602 72.536 123.2496
5.987679 72.617 122.8350
6.031068 72.697 122.4195
6.074771 72.776 122.0035
6.118792 72.855 121.5873
6.163131 72.933 121.1713
6.207792 73.011 120.7556
6.252776 73.088 120.3404
6.298086 73.164 119.9256
6.343725 73.241 119.5114
6.389694 73.316 119.0977
6.435996 73.392 118.6848
6.482634 73.466 118.2730
6.529610 73.541 117.8626
6.576926 73.615 117.4536
6.624585 73.689 117.0461
6.672590 73.763 116.6401
6.720942 73.837 116.2355
6.769645 73.911 115.8320
6.818700 73.984 115.4295
6.868111 74.057 115.0278
6.917881 74.131 114.6268
6.968010 74.204 114.2264
7.018504 74.278 113.8265
7.069362 74.352 113.4268
7.120590 74.426 113.0270
7.172189 74.500 112.6266
7.224161 74.574 112.2250
7.276511 74.648 111.8219
7.329239 74.723 111.4169
7.382350 74.797 111.0098
7.435845 74.872 110.6003
7.489729 74.947 110.1882
7.544002 75.022 109.7731
7.598669 75.096 109.3546
7.653732 75.171 108.9323
7.709194 75.245 108.5061
7.765058 75.320 108.0757
7.821327 75.393 107.6413
7.878004 75.467 107.2029
7.935091 75.540 106.7608
7.992592 75.612 106.3150
8.050510 75.684 105.8657
8.108847 75.754 105.4131
8.167607 75.824 104.9574
8.226793 75.894 104.4993
8.286408 75.962 104.0394
8.346454 76.029 103.5786
8.406936 76.095 103.1174
8.467856 76.160 102.6565
8.529218 76.223 102.1963
8.591024 76.286 101.7377
8.653278 76.348 101.2814
8.715983 76.408 100.8285
8.779143 76.468 100.3797
8.842760 76.527 99.9358
8.906839 76.585 99.4971
8.971381 76.642 99.0640
9.036392 76.699 98.6371
9.101873 76.756 98.2167
9.167829 76.812 97.8033
9.234263 76.868 97.3969
9.301178 76.924 96.9973
9.368578 76.980 96.6041
9.436467 77.037 96.2169
9.504847 77.094 95.8352
9.573723 77.152 95.4584
9.643099 77.210 95.0858
9.712976 77.269 94.7163
9.783361 77.329 94.3489
9.854255 77.390 93.9822
9.925663 77.452 93.6153
9.997588 77.514 93.2471
10.070035 77.577 92.8767
10.143007 77.641 92.5029
10.216507 77.706 92.1246
10.290540 77.770 91.7412
10.365109 77.835 91.3520
10.440219 77.900 90.9568
10.515873 77.965 90.5553
10.592076 78.029 90.1475
10.668830 78.093 89.7336
10.746141 78.156 89.3140
10.824012 78.217 88.8896
10.902447 78.278 88.4612
10.981451 78.337 88.0299
11.061027 78.395 87.5970
11.141180 78.452 87.1634
11.221913 78.507 86.7308
11.303232 78.560 86.3006
11.385140 78.613 85.8742
11.467641 78.664 85.4526
11.550741 78.714 85.0370
11.634442 78.762 84.6284
11.718750 78.811 84.2275
11.803669 78.858 83.8347
11.889203 78.906 83.4502
11.975357 78.953 83.0738
12.062136 79.001 82.7050
12.149543 79.049 82.3431
12.237583 79.098 81.9870
12.326262 79.147 81.6355
12.415583 79.198 81.2870
12.505552 79.249 80.9400
12.596172 79.301 80.5929
12.687449 79.354 80.2441
12.779387 79.408 79.8921
12.871992 79.463 79.5354
12.965268 79.518 79.1731
13.059220 79.573 78.8043
13.153852 79.628 78.4286
13.249170 79.683 78.0458
13.345179 79.737 77.6560
13.441884 79.790 77.2598
13.539289 79.842 76.8581
13.637401 79.893 76.4519
13.736223 79.943 76.0423
13.835761 79.992 75.6307
13.936021 80.039 75.2186
14.037007 80.085 74.8072
14.138725 80.130 74.3977
14.241180 80.173 73.9910
14.344377 80.216 73.5880
14.448323 80.258 73.1892
14.553021 80.299 72.7948
14.658478 80.340 72.4048
14.764700 80.380 72.0189
14.871691 80.420 71.6367
14.979457 80.461 71.2578
15.088005 80.501 70.8815
15.197339 80.540 70.5075
15.307465 80.580 70.1354
15.418389 80.619 69.7652
15.530117 80.658 69.3968
15.642655 80.697 69.0308
15.756008 80.735 68.6677
15.870182 80.773 68.3081
15.985184 80.811 67.9530
16.101019 80.849 67.6030
16.217694 80.886 67.2587
16.335214 80.924 66.9202
16.453586 80.963 66.5871
16.572815 81.002 66.2587
16.692909 81.043 65.9334
16.813872 81.085 65.6089
16.935713 81.129 65.2824
17.058436 81.174 64.9509
17.182048 81.221 64.6108
17.306556 81.269 64.2588
17.431967 81.318 63.8918
17.558286 81.367 63.5075
17.685521 81.415 63.1045
17.813677 81.462 62.6826
17.942762 81.507 62.2431
18.072783 81.548 61.7885
18.203746 81.586 61.3229
18.335658 81.620 60.8516
18.468526 81.649 60.3807
18.602356 81.673 59.9169
18.737156 81.692 59.4673
18.872934 81.708 59.0381
19.009695 81.721 58.6350
19.147447 81.731 58.2619
19.286197 81.741 57.9212
19.425953 81.751 57.6128
19.566721 81.762 57.3347
19.708510 81.776 57.0825
19.851326 81.794 56.8503
19.995177 81.815 56.6311
20.140070 81.840 56.4174
20.286013 81.869 56.2021
20.433014 81.901 55.9794
20.581080 81.935 55.7451
20.730219 81.971 55.4972
20.880439 82.006 55.2360
21.031747 82.042 54.9634
21.184152 82.076 54.6833
21.337661 82.109 54.4000
21.492282 82.142 54.1179
21.648024 82.173 53.8404
21.804895 82.205 53.5696
21.962902 82.238 53.3054
22.122054 82.273 53.0454
22.282360 82.311 52.7854
22.443827 82.351 52.5195
22.606464 82.393 52.2415
22.770280 82.438 51.9451
22.935283 82.484 51.6258
23.101481 82.530 51.2808
23.268884 82.575 50.9102
23.437500 82.618 50.5168
23.607338 82.657 50.1056
23.778406 82.693 49.6837
23.950714 82.725 49.2585
24.124271 82.753 48.8376
24.299086 82.778 48.4270
24.475167 82.802 48.0306
24.652524 82.825 47.6497
24.831166 82.848 47.2830
25.011103 82.872 46.9268
25.192344 82.898 46.5760
25.374898 82.925 46.2250
25.558775 82.953 45.8689
25.743984 82.982 45.5044
25.930536 83.010 45.1305
26.118439 83.037 44.7482
26.307704 83.063 44.3611
26.498341 83.085 43.9738
26.690359 83.106 43.5915
26.883768 83.125 43.2188
27.078579 83.142 42.8591
27.274801 83.159 42.5139
27.472446 83.176 42.1827
27.671522 83.194 41.8631
27.872042 83.213 41.5516
28.074014 83.234 41.2442
28.277450 83.255 40.9371
28.482360 83.277 40.6276
28.688755 83.300 40.3142
28.896645 83.322 39.9964
29.106042 83.344 39.6752
29.316957 83.364 39.3519
29.529400 83.384 39.0283
29.743382 83.403 38.7057
29.958915 83.421 38.3851
30.176009 83.439 38.0669
30.394677 83.456 37.7507
30.614929 83.472 37.4361
30.836778 83.489 37.1222
31.060234 83.505 36.8082
31.285309 83.521 36.4936
31.512015 83.536 36.1781
31.740364 83.551 35.8618
31.970368 83.565 35.5453
32.202039 83.578 35.2295
32.435388 83.591 34.9153
32.670428 83.603 34.6042
32.907171 83.615 34.2971
33.145630 83.626 33.9949
33.385817 83.638 33.6976
33.627745 83.650 33.4047
33.871425 83.663 33.1148
34.116871 83.677 32.8256
34.364096 83.692 32.5347
34.613113 83.708 32.2397
34.863934 83.724 31.9386
35.116572 83.741 31.6305
35.371041 83.757 31.3159
35.627354 83.772 30.9962
35.885525 83.786 30.6740
36.145566 83.799 30.3520
36.407492 83.811 30.0330
36.671316 83.822 29.7190
36.937051 83.832 29.4111
37.204712 83.843 29.1095
37.474313 83.853 28.8137
37.745867 83.863 28.5228
38.019389 83.873 28.2360
38.294893 83.883 27.9522
38.572394 83.893 27.6704
38.851905 83.904 27.3893
39.133442 83.915 27.1075
39.417019 83.925 26.8233
39.702651 83.936 26.5358
39.990353 83.945 26.2445
40.280140 83.954 25.9504
40.572026 83.962 25.6555
40.866028 83.968 25.3617
41.162160 83.974 25.0707
41.460438 83.979 24.7822
41.760877 83.985 24.4947
42.063494 83.991 24.2055
42.368303 83.996 23.9121
42.675322 84.000 23.6142
42.984565 84.004 23.3137
43.296048 84.006 23.0145
43.609789 84.006 22.7213
43.925804 84.006 22.4381
44.244108 84.006 22.1662
44.564719 84.006 21.9046
44.887654 84.008 21.6504
45.212928 84.011 21.4000
45.540560 84.016 21.1503
45.870565 84.022 20.8991
46.202962 84.029 20.6445
46.537768 84.037 20.3849
46.875000 84.045 20.1187
47.214676 84.053 19.8453
47.556813 84.061 19.5655
47.901429 84.067 19.2819
48.248542 84.072 18.9980
48.598171 84.076 18.7166
48.950334 84.079 18.4391
49.305048 84.081 18.1649
49.662333 84.083 17.8926
50.022206 84.084 17.6211
50.384688 84.085 17.3507
50.749796 84.084 17.0826
51.117550 84.082 16.8179
51.487969 84.080 16.5567
51.861072 84.078 16.2981
52.236879 84.075 16.0408
52.615409 84.072 15.7843
52.996681 84.068 15.5292
53.380717 84.064 15.2768
53.767536 84.061 15.0273
54.157158 84.058 14.7788
54.549603 84.056 14.5279
54.944892 84.055 14.2713
55.343045 84.053 14.0071
55.744084 84.052 13.7366
56.148028 84.049 13.4634
56.554900 84.046 13.1920
56.964720 84.041 12.9260
57.377510 84.037 12.6668
57.793291 84.033 12.4137
58.212085 84.030 12.1648
58.633914 84.026 11.9175
59.058799 84.023 11.6702
59.486764 84.020 11.4222
59.917829 84.017 11.1742
60.352019 84.012 10.9267
60.789354 84.008 10.6799
61.229859 84.003 10.4328
61.673556 83.997 10.1839
62.120468 83.992 9.9320
62.570618 83.986 9.6758
63.024031 83.980 9.4136
63.480729 83.974 9.1435
63.940736 83.967 8.8646
64.404077 83.959 8.5782
64.870776 83.950 8.2878
65.340856 83.940 7.9958
65.814343 83.929 7.7031
66.291261 83.917 7.4112
66.771635 83.902 7.1267
67.255489 83.885 6.8622
67.742850 83.865 6.6309
68.233743 83.846 6.4380
68.728193 83.830 6.2765
69.226226 83.817 6.1317
69.727867 83.807 5.9904
70.233144 83.797 5.8465
70.742083 83.786 5.7000
71.254709 83.775 5.5526
71.771050 83.763 5.4038
72.291132 83.751 5.2500
72.814984 83.737 5.0865
73.342631 83.723 4.9088
73.874102 83.708 4.7154
74.409424 83.692 4.5072
74.948626 83.673 4.2874
75.491734 83.654 4.0594
76.038779 83.635 3.8267
76.589787 83.615 3.5926
77.144788 83.595 3.3596
77.703811 83.577 3.1288
78.266885 83.559 2.8999
78.834039 83.542 2.6725
79.405303 83.526 2.4478
79.980706 83.509 2.2282
80.560280 83.491 2.0164
81.144053 83.473 1.8143
81.732056 83.455 1.6222
82.324320 83.436 1.4391
82.920876 83.417 1.2629
83.521755 83.399 1.0900
84.126988 83.380 0.9168
84.736607 83.361 0.7405
85.350643 83.341 0.5607
85.969129 83.320 0.3788
86.592097 83.298 0.1972
87.219579 83.275 0.0184
87.851608 83.251 -0.1553
88.488217 83.226 -0.3217
89.129439 83.200 -0.4800
89.775308 83.174 -0.6314
90.425856 83.148 -0.7796
91.081119 83.122 -0.9286
91.741131 83.096 -1.0808
92.405925 83.069 -1.2363
93.075536 83.042 -1.3943
93.750000 83.016 -1.5543
94.429351 82.991 -1.7178
95.113625 82.966 -1.8877
95.802858 82.943 -2.0655
96.497085 82.919 -2.2496
97.196342 82.895 -2.4349
97.900667 82.869 -2.6153
98.610096 82.843 -2.7857
99.324665 82.816 -2.9447
100.044413 82.789 -3.0936
100.769376 82.760 -3.2355
101.499592 82.731 -3.3736
102.235100 82.700 -3.5108
102.975938 82.668 -3.6500
103.722144 82.634 -3.7944
