* Measurement data measured by REW V5.31.3
* Source: Headset (CX31993 HIFI AUDIO), MICROPHONE (Master Volume), R, volume: 0.400
* Format: 256k Log Swept Sine, 1 sweep at -11.9 dBFS with no timing reference
* Dated: 07 7, 25 1:24:58 PM
* REW Settings:
*  C-weighting compensation: Off
*  Target level: 75.0 dB
* Note: ; 
* Measurement: Sony Linkbuds Fit EQ R
* Smoothing: 1/12 octave
* Frequency Step: 96 ppo
* Start Frequency: 0.36621094 Hz
*
* Freq(Hz) SPL(dB) Phase(degrees)
0.366211 49.147 -16.3749
0.368865 49.142 -16.4003
0.371538 49.133 -16.4381
0.374230 49.122 -16.4855
0.376942 49.110 -16.5399
0.379673 49.096 -16.5993
0.382424 49.083 -16.6626
0.385196 49.069 -16.7290
0.387987 49.054 -16.7980
0.390798 49.040 -16.8695
0.393630 49.025 -16.9433
0.396483 49.010 -17.0193
0.399356 48.995 -17.0977
0.402250 48.980 -17.1783
0.405165 48.965 -17.2612
0.408101 48.950 -17.3464
0.411058 48.934 -17.4340
0.414037 48.919 -17.5240
0.417037 48.903 -17.6164
0.420059 48.888 -17.7113
0.423103 48.872 -17.8086
0.426169 48.856 -17.9085
0.429257 48.840 -18.0108
0.432368 48.823 -18.1158
0.435501 48.807 -18.2234
0.438656 48.791 -18.3336
0.441835 48.774 -18.4465
0.445037 48.758 -18.5621
0.448262 48.741 -18.6804
0.451510 48.724 -18.8015
0.454782 48.707 -18.9255
0.458077 48.690 -19.0522
0.461397 48.672 -19.1819
0.464740 48.655 -19.3144
0.468108 48.638 -19.4500
0.471500 48.620 -19.5885
0.474917 48.602 -19.7300
0.478358 48.584 -19.8746
0.481825 48.566 -20.0222
0.485316 48.548 -20.1730
0.488833 48.530 -20.3270
0.492375 48.511 -20.4842
0.495943 48.493 -20.6446
0.499537 48.474 -20.8082
0.503157 48.455 -20.9752
0.506803 48.436 -21.1455
0.510475 48.417 -21.3193
0.514175 48.398 -21.4964
0.517900 48.379 -21.6770
0.521653 48.359 -21.8611
0.525434 48.339 -22.0487
0.529241 48.320 -22.2399
0.533076 48.300 -22.4347
0.536939 48.279 -22.6331
0.540830 48.259 -22.8352
0.544749 48.239 -23.0411
0.548696 48.218 -23.2507
0.552673 48.198 -23.4641
0.556677 48.177 -23.6813
0.560711 48.156 -23.9024
0.564774 48.135 -24.1274
0.568867 48.113 -24.3564
0.572989 48.092 -24.5893
0.577141 48.070 -24.8263
0.581324 48.049 -25.0673
0.585536 48.027 -25.3125
0.589779 48.005 -25.5617
0.594053 47.982 -25.8152
0.598358 47.960 -26.0728
0.602694 47.937 -26.3347
0.607061 47.915 -26.6009
0.611460 47.892 -26.8714
0.615891 47.869 -27.1462
0.620354 47.846 -27.4255
0.624849 47.822 -27.7092
0.629377 47.799 -27.9974
0.633938 47.775 -28.2900
0.638532 47.751 -28.5873
0.643159 47.727 -28.8891
0.647819 47.703 -29.1955
0.652514 47.678 -29.5066
0.657242 47.654 -29.8224
0.662005 47.629 -30.1429
0.666802 47.604 -30.4682
0.671634 47.579 -30.7983
0.676501 47.553 -31.1332
0.681403 47.528 -31.4731
0.686341 47.502 -31.8179
0.691314 47.476 -32.1676
0.696324 47.450 -32.5224
0.701370 47.424 -32.8824
0.706452 47.397 -33.2475
0.711571 47.371 -33.6181
0.716728 47.343 -33.9943
0.721921 47.315 -34.3766
0.727153 47.287 -34.7654
0.732422 47.258 -35.1615
0.737729 47.227 -35.5658
0.743075 47.195 -35.9793
0.748460 47.163 -36.4026
0.753883 47.128 -36.8365
0.759346 47.093 -37.2815
0.764849 47.056 -37.7381
0.770391 47.018 -38.2065
0.775974 46.979 -38.6872
0.781597 46.938 -39.1802
0.787261 46.897 -39.6861
0.792966 46.854 -40.2048
0.798712 46.810 -40.7368
0.804500 46.765 -41.2823
0.810329 46.720 -41.8416
0.816201 46.673 -42.4148
0.822116 46.626 -43.0023
0.828073 46.578 -43.6043
0.834074 46.529 -44.2210
0.840118 46.479 -44.8528
0.846206 46.429 -45.4998
0.852338 46.378 -46.1623
0.858514 46.327 -46.8406
0.864735 46.275 -47.5349
0.871001 46.223 -48.2454
0.877313 46.171 -48.9724
0.883670 46.119 -49.7161
0.890074 46.066 -50.4767
0.896524 46.014 -51.2544
0.903020 45.961 -52.0495
0.909564 45.909 -52.8621
0.916155 45.857 -53.6924
0.922794 45.806 -54.5406
0.929481 45.755 -55.4068
0.936216 45.705 -56.2912
0.943000 45.656 -57.1939
0.949834 45.607 -58.1150
0.956717 45.560 -59.0546
0.963649 45.513 -60.0128
0.970632 45.468 -60.9895
0.977666 45.425 -61.9850
0.984750 45.383 -62.9990
0.991886 45.343 -64.0318
0.999074 45.305 -65.0830
1.006314 45.269 -66.1529
1.013606 45.235 -67.2411
1.020951 45.204 -68.3477
1.028349 45.175 -69.4724
1.035801 45.150 -70.6151
1.043307 45.127 -71.7757
1.050867 45.108 -72.9539
1.058482 45.092 -74.1497
1.066152 45.080 -75.3627
1.073878 45.072 -76.5932
1.081660 45.067 -77.8410
1.089498 45.067 -79.1064
1.097393 45.071 -80.3898
1.105345 45.079 -81.6917
1.113355 45.091 -83.0127
1.121423 45.108 -84.3528
1.129549 45.128 -85.7121
1.137734 45.152 -87.0901
1.145979 45.180 -88.4861
1.154283 45.211 -89.8994
1.162647 45.247 -91.3289
1.171072 45.286 -92.7733
1.179558 45.328 -94.2316
1.188106 45.375 -95.7023
1.196715 45.424 -97.1840
1.205387 45.478 -98.6752
1.214122 45.535 -100.1742
1.222920 45.595 -101.6795
1.231782 45.659 -103.1893
1.240708 45.726 -104.7021
1.249699 45.796 -106.2161
1.258754 45.870 -107.7295
1.267876 45.946 -109.2408
1.277063 46.026 -110.7482
1.286318 46.109 -112.2500
1.295639 46.194 -113.7447
1.305027 46.282 -115.2308
1.314484 46.373 -116.7067
1.324009 46.467 -118.1712
1.333604 46.562 -119.6228
1.343268 46.661 -121.0605
1.353002 46.761 -122.4830
1.362806 46.863 -123.8893
1.372681 46.968 -125.2786
1.382628 47.074 -126.6499
1.392647 47.182 -128.0026
1.402739 47.291 -129.3360
1.412904 47.402 -130.6498
1.423142 47.514 -131.9433
1.433455 47.628 -133.2164
1.443843 47.743 -134.4689
1.454305 47.860 -135.7005
1.464844 47.980 -136.9114
1.475459 48.102 -138.1015
1.486150 48.229 -139.2708
1.496920 48.359 -140.4194
1.507767 48.493 -141.5475
1.518693 48.632 -142.6550
1.529698 48.775 -143.7422
1.540783 48.922 -144.8094
1.551948 49.074 -145.8567
1.563194 49.229 -146.8845
1.574521 49.388 -147.8932
1.585931 49.551 -148.8832
1.597423 49.716 -149.8551
1.608999 49.885 -150.8092
1.620658 50.056 -151.7460
1.632402 50.230 -152.6662
1.644232 50.406 -153.5704
1.656146 50.583 -154.4589
1.668147 50.762 -155.3326
1.680235 50.942 -156.1918
1.692411 51.123 -157.0374
1.704675 51.305 -157.8698
1.717028 51.486 -158.6896
1.729470 51.667 -159.4975
1.742003 51.847 -160.2941
1.754626 52.026 -161.0799
1.767341 52.203 -161.8555
1.780147 52.379 -162.6216
1.793047 52.552 -163.3785
1.806040 52.724 -164.1268
1.819128 52.893 -164.8669
1.832310 53.060 -165.5991
1.845587 53.225 -166.3234
1.858961 53.389 -167.0400
1.872432 53.552 -167.7489
1.886001 53.714 -168.4501
1.899667 53.875 -169.1434
1.913433 54.036 -169.8290
1.927299 54.197 -170.5068
1.941265 54.356 -171.1768
1.955332 54.516 -171.8391
1.969501 54.675 -172.4936
1.983773 54.833 -173.1406
1.998148 54.991 -173.7801
2.012627 55.149 -174.4122
2.027212 55.306 -175.0371
2.041902 55.462 -175.6548
2.056698 55.618 -176.2656
2.071602 55.773 -176.8697
2.086614 55.928 -177.4671
2.101734 56.083 -178.0582
2.116964 56.237 -178.6432
2.132304 56.390 -179.2223
2.147756 56.543 -179.7957
2.163320 56.695 179.6360
2.178996 56.847 179.0728
2.194786 56.997 178.5140
2.210690 57.147 177.9594
2.226710 57.296 177.4087
2.242845 57.444 176.8615
2.259098 57.591 176.3177
2.275468 57.737 175.7775
2.291957 57.882 175.2406
2.308566 58.025 174.7073
2.325295 58.168 174.1774
2.342145 58.310 173.6512
2.359117 58.451 173.1286
2.376212 58.591 172.6096
2.393431 58.730 172.0944
2.410775 58.869 171.5828
2.428244 59.006 171.0750
2.445840 59.144 170.5707
2.463564 59.281 170.0702
2.481416 59.417 169.5732
2.499397 59.553 169.0797
2.517509 59.688 168.5894
2.535752 59.823 168.1022
2.554127 59.958 167.6177
2.572635 60.092 167.1357
2.591277 60.225 166.6557
2.610055 60.357 166.1776
2.628968 60.488 165.7011
2.648019 60.619 165.2263
2.667208 60.748 164.7531
2.686535 60.876 164.2816
2.706003 61.004 163.8120
2.725612 61.131 163.3442
2.745363 61.257 162.8785
2.765257 61.382 162.4149
2.785295 61.507 161.9534
2.805478 61.631 161.4943
2.825808 61.754 161.0375
2.846285 61.877 160.5831
2.866910 62.000 160.1310
2.887685 62.122 159.6811
2.908611 62.244 159.2333
2.929688 62.365 158.7872
2.950917 62.486 158.3427
2.972301 62.606 157.8994
2.993839 62.725 157.4570
3.015534 62.843 157.0156
3.037386 62.961 156.5752
3.059396 63.077 156.1358
3.081565 63.194 155.6976
3.103896 63.309 155.2606
3.126388 63.424 154.8250
3.149043 63.538 154.3910
3.171862 63.652 153.9587
3.194847 63.765 153.5282
3.217998 63.878 153.0995
3.241317 63.990 152.6729
3.264805 64.102 152.2481
3.288463 64.214 151.8251
3.312293 64.325 151.4037
3.336295 64.436 150.9837
3.360471 64.546 150.5649
3.384822 64.656 150.1472
3.409350 64.765 149.7304
3.434056 64.873 149.3145
3.458940 64.981 148.8995
3.484005 65.088 148.4852
3.509252 65.195 148.0718
3.534681 65.301 147.6591
3.560295 65.408 147.2473
3.586094 65.513 146.8361
3.612081 65.619 146.4256
3.638255 65.724 146.0158
3.664620 65.829 145.6066
3.691175 65.934 145.1979
3.717923 66.038 144.7896
3.744864 66.141 144.3815
3.772001 66.245 143.9738
3.799335 66.348 143.5661
3.826866 66.450 143.1584
3.854597 66.552 142.7507
3.882529 66.654 142.3428
3.910664 66.755 141.9346
3.939002 66.856 141.5261
3.967546 66.957 141.1172
3.996296 67.058 140.7077
4.025255 67.158 140.2977
4.054423 67.258 139.8872
4.083804 67.358 139.4760
4.113396 67.457 139.0641
4.143204 67.556 138.6515
4.173227 67.655 138.2379
4.203468 67.753 137.8234
4.233928 67.851 137.4076
4.264609 67.949 136.9905
4.295512 68.046 136.5718
4.326639 68.143 136.1516
4.357992 68.240 135.7294
4.389572 68.336 135.3053
4.421380 68.432 134.8792
4.453419 68.527 134.4510
4.485691 68.622 134.0208
4.518196 68.717 133.5885
4.550936 68.811 133.1541
4.583914 68.905 132.7178
4.617131 68.998 132.2794
4.650589 69.091 131.8389
4.684289 69.183 131.3963
4.718233 69.275 130.9514
4.752424 69.366 130.5041
4.786862 69.457 130.0542
4.821549 69.547 129.6017
4.856488 69.637 129.1465
4.891680 69.726 128.6888
4.927127 69.814 128.2288
4.962831 69.902 127.7667
4.998794 69.989 127.3026
5.035017 70.075 126.8368
5.071503 70.161 126.3691
5.108253 70.246 125.8997
5.145270 70.330 125.4283
5.182555 70.414 124.9548
5.220110 70.497 124.4791
5.257937 70.579 124.0015
5.296038 70.660 123.5223
5.334415 70.740 123.0417
5.373071 70.820 122.5602
5.412006 70.899 122.0782
5.451224 70.977 121.5957
5.490725 71.055 121.1129
5.530514 71.131 120.6295
5.570590 71.207 120.1455
5.610957 71.282 119.6610
5.651616 71.356 119.1761
5.692570 71.430 118.6913
5.733821 71.502 118.2069
5.775370 71.575 117.7233
5.817221 71.646 117.2409
5.859375 71.717 116.7597
5.901834 71.787 116.2796
5.944602 71.856 115.8007
5.987679 71.925 115.3228
6.031068 71.994 114.8461
6.074771 72.061 114.3708
6.118792 72.129 113.8970
6.163131 72.196 113.4251
6.207792 72.262 112.9551
6.252776 72.329 112.4870
6.298086 72.395 112.0208
6.343725 72.460 111.5564
6.389694 72.526 111.0936
6.435996 72.591 110.6323
6.482634 72.656 110.1724
6.529610 72.721 109.7138
6.576926 72.786 109.2566
6.624585 72.851 108.8006
6.672590 72.916 108.3457
6.720942 72.981 107.8918
6.769645 73.046 107.4384
6.818700 73.111 106.9853
6.868111 73.176 106.5321
6.917881 73.241 106.0787
6.968010 73.307 105.6248
7.018504 73.372 105.1701
7.069362 73.438 104.7147
7.120590 73.504 104.2582
7.172189 73.570 103.8004
7.224161 73.636 103.3410
7.276511 73.702 102.8797
7.329239 73.768 102.4163
7.382350 73.834 101.9507
7.435845 73.900 101.4828
7.489729 73.966 101.0127
7.544002 74.032 100.5402
7.598669 74.098 100.0654
7.653732 74.164 99.5883
7.709194 74.229 99.1088
7.765058 74.294 98.6270
7.821327 74.359 98.1429
7.878004 74.423 97.6570
7.935091 74.487 97.1694
7.992592 74.551 96.6805
8.050510 74.615 96.1904
8.108847 74.677 95.6994
8.167607 74.740 95.2076
8.226793 74.802 94.7155
8.286408 74.863 94.2232
8.346454 74.925 93.7314
8.406936 74.985 93.2402
8.467856 75.046 92.7499
8.529218 75.106 92.2608
8.591024 75.165 91.7729
8.653278 75.225 91.2865
8.715983 75.284 90.8018
8.779143 75.342 90.3189
8.842760 75.401 89.8380
8.906839 75.460 89.3590
8.971381 75.518 88.8818
9.036392 75.576 88.4065
9.101873 75.634 87.9327
9.167829 75.693 87.4605
9.234263 75.751 86.9897
9.301178 75.809 86.5200
9.368578 75.867 86.0514
9.436467 75.925 85.5834
9.504847 75.983 85.1160
9.573723 76.041 84.6488
9.643099 76.098 84.1819
9.712976 76.156 83.7151
9.783361 76.213 83.2484
9.854255 76.270 82.7817
9.925663 76.326 82.3152
9.997588 76.383 81.8489
10.070035 76.438 81.3831
10.143007 76.493 80.9181
10.216507 76.547 80.4543
10.290540 76.601 79.9922
10.365109 76.654 79.5321
10.440219 76.706 79.0745
10.515873 76.757 78.6200
10.592076 76.808 78.1691
10.668830 76.857 77.7224
10.746141 76.907 77.2803
10.824012 76.955 76.8430
10.902447 77.003 76.4110
10.981451 77.051 75.9844
11.061027 77.098 75.5632
11.141180 77.145 75.1475
11.221913 77.192 74.7368
11.303232 77.239 74.3309
11.385140 77.285 73.9291
11.467641 77.332 73.5310
11.550741 77.379 73.1357
11.634442 77.426 72.7424
11.718750 77.472 72.3501
11.803669 77.519 71.9580
11.889203 77.566 71.5653
11.975357 77.613 71.1712
12.062136 77.659 70.7751
12.149543 77.705 70.3762
12.237583 77.750 69.9745
12.326262 77.794 69.5699
12.415583 77.838 69.1626
12.505552 77.880 68.7528
12.596172 77.920 68.3412
12.687449 77.959 67.9287
12.779387 77.997 67.5164
12.871992 78.033 67.1052
12.965268 78.067 66.6964
13.059220 78.100 66.2912
13.153852 78.131 65.8907
13.249170 78.160 65.4960
13.345179 78.189 65.1077
13.441884 78.216 64.7263
13.539289 78.243 64.3517
13.637401 78.269 63.9839
13.736223 78.296 63.6220
13.835761 78.322 63.2649
13.936021 78.349 62.9109
14.037007 78.376 62.5582
14.138725 78.403 62.2047
14.241180 78.432 61.8479
14.344377 78.460 61.4857
14.448323 78.489 61.1157
14.553021 78.519 60.7361
14.658478 78.548 60.3452
14.764700 78.576 59.9413
14.871691 78.604 59.5237
14.979457 78.630 59.0921
15.088005 78.654 58.6469
15.197339 78.676 58.1891
15.307465 78.696 57.7203
15.418389 78.712 57.2429
15.530117 78.726 56.7594
15.642655 78.736 56.2729
15.756008 78.742 55.7867
15.870182 78.745 55.3043
15.985184 78.745 54.8291
16.101019 78.742 54.3646
16.217694 78.736 53.9143
16.335214 78.727 53.4812
16.453586 78.717 53.0681
16.572815 78.705 52.6774
16.692909 78.693 52.3111
16.813872 78.680 51.9708
16.935713 78.668 51.6574
17.058436 78.658 51.3712
17.182048 78.650 51.1119
17.306556 78.645 50.8782
17.431967 78.643 50.6680
17.558286 78.647 50.4783
17.685521 78.656 50.3050
17.813677 78.671 50.1429
17.942762 78.692 49.9859
18.072783 78.720 49.8271
18.203746 78.755 49.6589
18.335658 78.797 49.4734
18.468526 78.845 49.2631
18.602356 78.899 49.0210
18.737156 78.957 48.7411
18.872934 79.018 48.4194
19.009695 79.080 48.0533
19.147447 79.142 47.6430
19.286197 79.203 47.1906
19.425953 79.261 46.7008
19.566721 79.314 46.1802
19.708510 79.362 45.6375
19.851326 79.404 45.0823
19.995177 79.439 44.5251
20.140070 79.469 43.9762
20.286013 79.493 43.4454
20.433014 79.512 42.9408
20.581080 79.528 42.4684
20.730219 79.543 42.0316
20.880439 79.556 41.6310
21.031747 79.571 41.2639
21.184152 79.589 40.9252
21.337661 79.609 40.6078
21.492282 79.632 40.3033
21.648024 79.658 40.0031
21.804895 79.686 39.6998
21.962902 79.716 39.3879
22.122054 79.746 39.0641
22.282360 79.775 38.7285
22.443827 79.801 38.3839
22.606464 79.823 38.0352
22.770280 79.842 37.6895
22.935283 79.857 37.3540
23.101481 79.868 37.0356
23.268884 79.877 36.7396
23.437500 79.885 36.4687
23.607338 79.893 36.2227
23.778406 79.902 35.9980
23.950714 79.913 35.7881
24.124271 79.928 35.5845
24.299086 79.946 35.3776
24.475167 79.966 35.1583
24.652524 79.988 34.9194
24.831166 80.010 34.6560
25.011103 80.032 34.3666
25.192344 80.051 34.0531
25.374898 80.067 33.7199
25.558775 80.079 33.3736
25.743984 80.088 33.0213
25.930536 80.092 32.6700
26.118439 80.094 32.3253
26.307704 80.094 31.9904
26.498341 80.094 31.6664
26.690359 80.093 31.3518
26.883768 80.093 31.0435
27.078579 80.095 30.7373
27.274801 80.097 30.4287
27.472446 80.101 30.1144
27.671522 80.106 29.7920
27.872042 80.110 29.4608
28.074014 80.115 29.1216
28.277450 80.118 28.7767
28.482360 80.120 28.4290
28.688755 80.121 28.0817
28.896645 80.122 27.7384
29.106042 80.121 27.4022
29.316957 80.119 27.0762
29.529400 80.117 26.7629
29.743382 80.114 26.4643
29.958915 80.112 26.1815
30.176009 80.111 25.9148
30.394677 80.111 25.6628
30.614929 80.113 25.4232
30.836778 80.117 25.1924
31.060234 80.123 24.9663
31.285309 80.130 24.7410
31.512015 80.138 24.5135
31.740364 80.147 24.2825
31.970368 80.155 24.0480
32.202039 80.163 23.8115
32.435388 80.170 23.5750
32.670428 80.175 23.3404
32.907171 80.180 23.1083
33.145630 80.185 22.8779
33.385817 80.189 22.6479
33.627745 80.192 22.4163
33.871425 80.194 22.1819
34.116871 80.195 21.9453
34.364096 80.195 21.7087
34.613113 80.192 21.4755
34.863934 80.189 21.2488
35.116572 80.185 21.0306
35.371041 80.181 20.8201
35.627354 80.179 20.6135
35.885525 80.178 20.4050
36.145566 80.179 20.1885
36.407492 80.181 19.9591
36.671316 80.183 19.7153
36.937051 80.183 19.4598
37.204712 80.182 19.1980
37.474313 80.179 18.9374
37.745867 80.174 18.6848
38.019389 80.169 18.4445
38.294893 80.164 18.2173
38.572394 80.161 18.0011
38.851905 80.159 17.7913
39.133442 80.159 17.5835
39.417019 80.159 17.3746
39.702651 80.160 17.1642
39.990353 80.161 16.9539
40.280140 80.161 16.7467
40.572026 80.161 16.5457
40.866028 80.160 16.3519
41.162160 80.159 16.1650
41.460438 80.159 15.9822
41.760877 80.159 15.8003
42.063494 80.159 15.6169
42.368303 80.158 15.4313
42.675322 80.155 15.2448
42.984565 80.151 15.0606
43.296048 80.146 14.8816
43.609789 80.140 14.7092
43.925804 80.134 14.5424
44.244108 80.129 14.3779
44.564719 80.124 14.2114
44.887654 80.120 14.0392
45.212928 80.115 13.8600
45.540560 80.109 13.6754
45.870565 80.103 13.4891
46.202962 80.095 13.3055
46.537768 80.088 13.1276
46.875000 80.080 12.9565
47.214676 80.073 12.7913
47.556813 80.068 12.6304
47.901429 80.063 12.4724
48.248542 80.060 12.3163
48.598171 80.057 12.1623
48.950334 80.055 12.0099
49.305048 80.054 11.8585
49.662333 80.053 11.7068
50.022206 80.054 11.5533
50.384688 80.054 11.3973
50.749796 80.054 11.2386
51.117550 80.053 11.0780
51.487969 80.052 10.9159
51.861072 80.050 10.7534
52.236879 80.048 10.5914
52.615409 80.045 10.4305
52.996681 80.041 10.2704
53.380717 80.037 10.1095
53.767536 80.034 9.9447
54.157158 80.031 9.7731
54.549603 80.027 9.5933
54.944892 80.022 9.4073
55.343045 80.016 9.2198
55.744084 80.009 9.0364
56.148028 80.001 8.8606
56.554900 79.994 8.6926
56.964720 79.988 8.5299
57.377510 79.983 8.3698
57.793291 79.979 8.2118
58.212085 79.974 8.0591
58.633914 79.969 7.9163
59.058799 79.965 7.7860
59.486764 79.962 7.6667
59.917829 79.961 7.5527
60.352019 79.961 7.4370
60.789354 79.961 7.3159
61.229859 79.960 7.1909
61.673556 79.957 7.0669
62.120468 79.953 6.9482
62.570618 79.948 6.8344
63.024031 79.944 6.7198
63.480729 79.939 6.5985
63.940736 79.933 6.4683
64.404077 79.925 6.3330
64.870776 79.914 6.1996
65.340856 79.903 6.0734
65.814343 79.892 5.9558
66.291261 79.882 5.8438
66.771635 79.874 5.7329
67.255489 79.867 5.6191
67.742850 79.862 5.4996
68.233743 79.857 5.3737
68.728193 79.854 5.2419
69.226226 79.850 5.1068
69.727867 79.846 4.9703
70.233144 79.841 4.8347
70.742083 79.836 4.7021
71.254709 79.831 4.5749
71.771050 79.825 4.4552
72.291132 79.819 4.3423
72.814984 79.813 4.2325
73.342631 79.807 4.1222
73.874102 79.800 4.0104
74.409424 79.792 3.9003
74.948626 79.783 3.7952
75.491734 79.774 3.6954
76.038779 79.766 3.5980
76.589787 79.757 3.4993
77.144788 79.749 3.3976
77.703811 79.740 3.2940
78.266885 79.731 3.1906
78.834039 79.722 3.0888
79.405303 79.713 2.9891
79.980706 79.704 2.8904
80.560280 79.697 2.7898
81.144053 79.690 2.6838
81.732056 79.683 2.5701
82.324320 79.676 2.4485
82.920876 79.669 2.3221
83.521755 79.661 2.1953
84.126988 79.652 2.0714
84.736607 79.643 1.9530
85.350643 79.634 1.8408
85.969129 79.625 1.7339
86.592097 79.616 1.6304
87.219579 79.606 1.5297
87.851608 79.595 1.4341
88.488217 79.583 1.3466
89.129439 79.570 1.2682
89.775308 79.558 1.1964
90.425856 79.546 1.1279
91.081119 79.535 1.0596
91.741131 79.525 0.9885
92.405925 79.517 0.9122
93.075536 79.509 0.8289
93.750000 79.502 0.7377
94.429351 79.497 0.6389
95.113625 79.492 0.5322
95.802858 79.487 0.4177
96.497085 79.481 0.2981
97.196342 79.473 0.1796
97.900667 79.464 0.0690
98.610096 79.455 -0.0302
99.324665 79.445 -0.1189
100.044413 79.435 -0.2010
100.769376 79.425 -0.2798
101.499592 79.415 -0.3576
102.235100 79.404 -0.4358
102.975938 79.393 -0.5140
