* Measurement data measured by REW V5.31.3
* Source: Headset (CX31993 HIFI AUDIO), MICROPHONE (Master Volume), R, volume: 0.400
* Format: 256k Log Swept Sine, 1 sweep at -11.9 dBFS with no timing reference
* Dated: 07 7, 25 1:20:06 PM
* REW Settings:
*  C-weighting compensation: Off
*  Target level: 75.0 dB
* Note: ; 
* Measurement: Sony Linkbuds Fit EQ L
* Smoothing: 1/12 octave
* Frequency Step: 96 ppo
* Start Frequency: 0.36621094 Hz
*
* Freq(Hz) SPL(dB) Phase(degrees)
0.366211 39.245 -39.3469
0.368865 39.247 -39.4108
0.371538 39.249 -39.5062
0.374230 39.251 -39.6255
0.376942 39.254 -39.7622
0.379673 39.257 -39.9113
0.382424 39.261 -40.0698
0.385196 39.264 -40.2357
0.387987 39.267 -40.4079
0.390798 39.271 -40.5857
0.393630 39.274 -40.7690
0.396483 39.278 -40.9576
0.399356 39.281 -41.1514
0.402250 39.285 -41.3504
0.405165 39.288 -41.5547
0.408101 39.292 -41.7644
0.411058 39.296 -41.9795
0.414037 39.299 -42.2001
0.417037 39.303 -42.4262
0.420059 39.307 -42.6578
0.423103 39.310 -42.8952
0.426169 39.314 -43.1382
0.429257 39.318 -43.3870
0.432368 39.322 -43.6416
0.435501 39.326 -43.9020
0.438656 39.329 -44.1685
0.441835 39.333 -44.4409
0.445037 39.337 -44.7193
0.448262 39.341 -45.0039
0.451510 39.345 -45.2947
0.454782 39.349 -45.5916
0.458077 39.353 -45.8948
0.461397 39.357 -46.2043
0.464740 39.361 -46.5202
0.468108 39.366 -46.8425
0.471500 39.370 -47.1712
0.474917 39.374 -47.5065
0.478358 39.378 -47.8483
0.481825 39.382 -48.1966
0.485316 39.387 -48.5515
0.488833 39.391 -48.9131
0.492375 39.395 -49.2814
0.495943 39.400 -49.6563
0.499537 39.404 -50.0380
0.503157 39.408 -50.4265
0.506803 39.413 -50.8217
0.510475 39.417 -51.2237
0.514175 39.422 -51.6325
0.517900 39.426 -52.0482
0.521653 39.431 -52.4707
0.525434 39.436 -52.9000
0.529241 39.440 -53.3361
0.533076 39.445 -53.7791
0.536939 39.450 -54.2289
0.540830 39.455 -54.6855
0.544749 39.459 -55.1489
0.548696 39.464 -55.6191
0.552673 39.469 -56.0961
0.556677 39.474 -56.5798
0.560711 39.479 -57.0703
0.564774 39.484 -57.5674
0.568867 39.489 -58.0712
0.572989 39.494 -58.5815
0.577141 39.499 -59.0985
0.581324 39.504 -59.6219
0.585536 39.509 -60.1518
0.589779 39.515 -60.6881
0.594053 39.520 -61.2307
0.598358 39.525 -61.7796
0.602694 39.530 -62.3347
0.607061 39.536 -62.8960
0.611460 39.541 -63.4633
0.615891 39.546 -64.0366
0.620354 39.552 -64.6158
0.624849 39.557 -65.2008
0.629377 39.563 -65.7915
0.633938 39.569 -66.3879
0.638532 39.574 -66.9898
0.643159 39.580 -67.5971
0.647819 39.586 -68.2098
0.652514 39.591 -68.8278
0.657242 39.597 -69.4509
0.662005 39.603 -70.0791
0.666802 39.609 -70.7122
0.671634 39.615 -71.3502
0.676501 39.621 -71.9929
0.681403 39.627 -72.6403
0.686341 39.633 -73.2923
0.691314 39.639 -73.9487
0.696324 39.645 -74.6096
0.701370 39.652 -75.2748
0.706452 39.659 -75.9443
0.711571 39.667 -76.6182
0.716728 39.676 -77.2965
0.721921 39.687 -77.9794
0.727153 39.700 -78.6672
0.732422 39.717 -79.3604
0.737729 39.738 -80.0595
0.743075 39.762 -80.7649
0.748460 39.790 -81.4770
0.753883 39.820 -82.1959
0.759346 39.853 -82.9216
0.764849 39.887 -83.6540
0.770391 39.923 -84.3930
0.775974 39.961 -85.1381
0.781597 39.999 -85.8892
0.787261 40.039 -86.6460
0.792966 40.081 -87.4080
0.798712 40.123 -88.1751
0.804500 40.167 -88.9467
0.810329 40.213 -89.7227
0.816201 40.259 -90.5025
0.822116 40.307 -91.2859
0.828073 40.356 -92.0725
0.834074 40.406 -92.8619
0.840118 40.458 -93.6537
0.846206 40.511 -94.4477
0.852338 40.565 -95.2433
0.858514 40.620 -96.0403
0.864735 40.677 -96.8383
0.871001 40.735 -97.6370
0.877313 40.794 -98.4359
0.883670 40.854 -99.2348
0.890074 40.916 -100.0333
0.896524 40.978 -100.8311
0.903020 41.042 -101.6279
0.909564 41.107 -102.4234
0.916155 41.173 -103.2173
0.922794 41.240 -104.0093
0.929481 41.308 -104.7991
0.936216 41.378 -105.5866
0.943000 41.448 -106.3714
0.949834 41.520 -107.1533
0.956717 41.592 -107.9322
0.963649 41.665 -108.7077
0.970632 41.740 -109.4799
0.977666 41.815 -110.2484
0.984750 41.891 -111.0131
0.991886 41.968 -111.7739
0.999074 42.046 -112.5308
1.006314 42.124 -113.2835
1.013606 42.203 -114.0320
1.020951 42.283 -114.7762
1.028349 42.364 -115.5161
1.035801 42.445 -116.2517
1.043307 42.527 -116.9829
1.050867 42.609 -117.7096
1.058482 42.692 -118.4321
1.066152 42.775 -119.1501
1.073878 42.859 -119.8639
1.081660 42.943 -120.5734
1.089498 43.028 -121.2788
1.097393 43.114 -121.9802
1.105345 43.200 -122.6776
1.113355 43.288 -123.3711
1.121423 43.377 -124.0609
1.129549 43.468 -124.7470
1.137734 43.560 -125.4293
1.145979 43.653 -126.1079
1.154283 43.748 -126.7827
1.162647 43.845 -127.4538
1.171072 43.943 -128.1212
1.179558 44.043 -128.7847
1.188106 44.144 -129.4444
1.196715 44.246 -130.1003
1.205387 44.350 -130.7522
1.214122 44.455 -131.4003
1.222920 44.562 -132.0444
1.231782 44.670 -132.6845
1.240708 44.779 -133.3206
1.249699 44.890 -133.9526
1.258754 45.001 -134.5805
1.267876 45.114 -135.2043
1.277063 45.227 -135.8238
1.286318 45.342 -136.4392
1.295639 45.458 -137.0502
1.305027 45.574 -137.6569
1.314484 45.691 -138.2593
1.324009 45.810 -138.8571
1.333604 45.928 -139.4506
1.343268 46.048 -140.0394
1.353002 46.167 -140.6237
1.362806 46.288 -141.2034
1.372681 46.408 -141.7783
1.382628 46.529 -142.3485
1.392647 46.650 -142.9138
1.402739 46.772 -143.4743
1.412904 46.893 -144.0298
1.423142 47.014 -144.5802
1.433455 47.135 -145.1253
1.443843 47.256 -145.6650
1.454305 47.377 -146.1990
1.464844 47.498 -146.7271
1.475459 47.619 -147.2488
1.486150 47.741 -147.7641
1.496920 47.863 -148.2727
1.507767 47.985 -148.7748
1.518693 48.107 -149.2706
1.529698 48.230 -149.7602
1.540783 48.354 -150.2441
1.551948 48.478 -150.7226
1.563194 48.603 -151.1960
1.574521 48.728 -151.6648
1.585931 48.853 -152.1292
1.597423 48.980 -152.5897
1.608999 49.106 -153.0467
1.620658 49.233 -153.5005
1.632402 49.361 -153.9514
1.644232 49.489 -154.3999
1.656146 49.617 -154.8463
1.668147 49.746 -155.2908
1.680235 49.875 -155.7339
1.692411 50.004 -156.1759
1.704675 50.134 -156.6171
1.717028 50.264 -157.0578
1.729470 50.395 -157.4983
1.742003 50.526 -157.9389
1.754626 50.657 -158.3798
1.767341 50.788 -158.8212
1.780147 50.920 -159.2631
1.793047 51.052 -159.7057
1.806040 51.184 -160.1488
1.819128 51.316 -160.5919
1.832310 51.449 -161.0345
1.845587 51.581 -161.4759
1.858961 51.714 -161.9154
1.872432 51.847 -162.3526
1.886001 51.981 -162.7871
1.899667 52.114 -163.2190
1.913433 52.248 -163.6483
1.927299 52.382 -164.0752
1.941265 52.516 -164.5001
1.955332 52.650 -164.9231
1.969501 52.785 -165.3446
1.983773 52.919 -165.7649
1.998148 53.054 -166.1843
2.012627 53.189 -166.6032
2.027212 53.324 -167.0220
2.041902 53.460 -167.4408
2.056698 53.596 -167.8602
2.071602 53.731 -168.2803
2.086614 53.868 -168.7014
2.101734 54.004 -169.1240
2.116964 54.140 -169.5482
2.132304 54.277 -169.9742
2.147756 54.414 -170.4021
2.163320 54.551 -170.8319
2.178996 54.688 -171.2633
2.194786 54.826 -171.6959
2.210690 54.963 -172.1290
2.226710 55.101 -172.5621
2.242845 55.239 -172.9946
2.259098 55.377 -173.4264
2.275468 55.515 -173.8573
2.291957 55.653 -174.2875
2.308566 55.791 -174.7172
2.325295 55.929 -175.1466
2.342145 56.067 -175.5760
2.359117 56.205 -176.0060
2.376212 56.343 -176.4367
2.393431 56.481 -176.8686
2.410775 56.619 -177.3021
2.428244 56.757 -177.7376
2.445840 56.895 -178.1754
2.463564 57.033 -178.6160
2.481416 57.171 -179.0596
2.499397 57.310 -179.5065
2.517509 57.448 -179.9570
2.535752 57.586 179.5892
2.554127 57.723 179.1320
2.572635 57.861 178.6719
2.591277 57.999 178.2094
2.610055 58.136 177.7449
2.628968 58.274 177.2787
2.648019 58.411 176.8112
2.667208 58.548 176.3422
2.686535 58.685 175.8719
2.706003 58.821 175.4001
2.725612 58.958 174.9266
2.745363 59.094 174.4513
2.765257 59.229 173.9739
2.785295 59.365 173.4942
2.805478 59.500 173.0118
2.825808 59.635 172.5266
2.846285 59.770 172.0383
2.866910 59.904 171.5464
2.887685 60.038 171.0510
2.908611 60.172 170.5516
2.929688 60.305 170.0484
2.950917 60.438 169.5413
2.972301 60.570 169.0305
2.993839 60.702 168.5164
3.015534 60.833 167.9990
3.037386 60.964 167.4789
3.059396 61.095 166.9562
3.081565 61.224 166.4312
3.103896 61.354 165.9042
3.126388 61.482 165.3752
3.149043 61.610 164.8445
3.171862 61.738 164.3120
3.194847 61.865 163.7778
3.217998 61.991 163.2418
3.241317 62.117 162.7039
3.264805 62.242 162.1638
3.288463 62.367 161.6212
3.312293 62.490 161.0757
3.336295 62.613 160.5272
3.360471 62.736 159.9756
3.384822 62.857 159.4210
3.409350 62.978 158.8637
3.434056 63.097 158.3042
3.458940 63.216 157.7430
3.484005 63.334 157.1805
3.509252 63.452 156.6172
3.534681 63.568 156.0536
3.560295 63.684 155.4898
3.586094 63.799 154.9260
3.612081 63.913 154.3622
3.638255 64.026 153.7981
3.664620 64.139 153.2333
3.691175 64.251 152.6672
3.717923 64.361 152.0995
3.744864 64.471 151.5299
3.772001 64.579 150.9589
3.799335 64.687 150.3867
3.826866 64.794 149.8140
3.854597 64.899 149.2415
3.882529 65.004 148.6700
3.910664 65.108 148.1000
3.939002 65.211 147.5321
3.967546 65.313 146.9666
3.996296 65.415 146.4035
4.025255 65.515 145.8425
4.054423 65.615 145.2831
4.083804 65.714 144.7249
4.113396 65.812 144.1675
4.143204 65.908 143.6109
4.173227 66.004 143.0555
4.203468 66.099 142.5018
4.233928 66.193 141.9503
4.264609 66.286 141.4018
4.295512 66.379 140.8568
4.326639 66.471 140.3157
4.357992 66.562 139.7787
4.389572 66.652 139.2458
4.421380 66.742 138.7167
4.453419 66.831 138.1910
4.485691 66.920 137.6685
4.518196 67.007 137.1489
4.550936 67.094 136.6325
4.583914 67.181 136.1194
4.617131 67.266 135.6100
4.650589 67.352 135.1048
4.684289 67.437 134.6039
4.718233 67.522 134.1076
4.752424 67.606 133.6160
4.786862 67.690 133.1291
4.821549 67.774 132.6465
4.856488 67.857 132.1681
4.891680 67.940 131.6936
4.927127 68.023 131.2228
4.962831 68.106 130.7556
4.998794 68.188 130.2917
5.035017 68.270 129.8314
5.071503 68.353 129.3743
5.108253 68.435 128.9207
5.145270 68.518 128.4705
5.182555 68.600 128.0235
5.220110 68.683 127.5796
5.257937 68.765 127.1385
5.296038 68.848 126.6999
5.334415 68.930 126.2633
5.373071 69.013 125.8283
5.412006 69.096 125.3945
5.451224 69.179 124.9617
5.490725 69.262 124.5298
5.530514 69.345 124.0985
5.570590 69.429 123.6680
5.610957 69.512 123.2380
5.651616 69.596 122.8082
5.692570 69.680 122.3784
5.733821 69.763 121.9480
5.775370 69.847 121.5168
5.817221 69.931 121.0844
5.859375 70.014 120.6506
5.901834 70.098 120.2152
5.944602 70.182 119.7783
5.987679 70.265 119.3399
6.031068 70.348 118.8998
6.074771 70.431 118.4582
6.118792 70.514 118.0148
6.163131 70.596 117.5695
6.207792 70.678 117.1223
6.252776 70.760 116.6730
6.298086 70.841 116.2216
6.343725 70.922 115.7682
6.389694 71.002 115.3131
6.435996 71.082 114.8566
6.482634 71.161 114.3989
6.529610 71.239 113.9403
6.576926 71.317 113.4809
6.624585 71.394 113.0207
6.672590 71.470 112.5599
6.720942 71.546 112.0985
6.769645 71.621 111.6370
6.818700 71.695 111.1758
6.868111 71.768 110.7154
6.917881 71.841 110.2561
6.968010 71.913 109.7981
7.018504 71.984 109.3416
7.069362 72.054 108.8867
7.120590 72.124 108.4334
7.172189 72.193 107.9822
7.224161 72.262 107.5334
7.276511 72.330 107.0872
7.329239 72.398 106.6438
7.382350 72.465 106.2034
7.435845 72.531 105.7658
7.489729 72.598 105.3311
7.544002 72.664 104.8992
7.598669 72.729 104.4700
7.653732 72.795 104.0435
7.709194 72.860 103.6197
7.765058 72.925 103.1984
7.821327 72.990 102.7794
7.878004 73.055 102.3625
7.935091 73.120 101.9471
7.992592 73.185 101.5331
8.050510 73.250 101.1200
8.108847 73.315 100.7076
8.167607 73.380 100.2956
8.226793 73.446 99.8837
8.286408 73.511 99.4715
8.346454 73.576 99.0585
8.406936 73.641 98.6443
8.467856 73.706 98.2288
8.529218 73.771 97.8116
8.591024 73.836 97.3927
8.653278 73.900 96.9719
8.715983 73.964 96.5489
8.779143 74.028 96.1238
8.842760 74.092 95.6964
8.906839 74.155 95.2668
8.971381 74.217 94.8351
9.036392 74.279 94.4017
9.101873 74.341 93.9667
9.167829 74.401 93.5304
9.234263 74.461 93.0931
9.301178 74.521 92.6549
9.368578 74.579 92.2165
9.436467 74.637 91.7782
9.504847 74.694 91.3406
9.573723 74.750 90.9040
9.643099 74.806 90.4687
9.712976 74.860 90.0351
9.783361 74.915 89.6035
9.854255 74.968 89.1744
9.925663 75.021 88.7479
9.997588 75.074 88.3242
10.070035 75.127 87.9034
10.143007 75.179 87.4854
10.216507 75.231 87.0702
10.290540 75.282 86.6577
10.365109 75.334 86.2477
10.440219 75.386 85.8398
10.515873 75.437 85.4337
10.592076 75.489 85.0288
10.668830 75.541 84.6249
10.746141 75.593 84.2213
10.824012 75.646 83.8177
10.902447 75.698 83.4135
10.981451 75.750 83.0082
11.061027 75.803 82.6014
11.141180 75.855 82.1929
11.221913 75.907 81.7822
11.303232 75.960 81.3694
11.385140 76.011 80.9541
11.467641 76.063 80.5365
11.550741 76.114 80.1167
11.634442 76.165 79.6949
11.718750 76.215 79.2715
11.803669 76.264 78.8469
11.889203 76.313 78.4214
11.975357 76.361 77.9956
12.062136 76.408 77.5701
12.149543 76.455 77.1455
12.237583 76.501 76.7222
12.326262 76.546 76.3008
12.415583 76.591 75.8816
12.505552 76.635 75.4650
12.596172 76.679 75.0514
12.687449 76.723 74.6407
12.779387 76.766 74.2332
12.871992 76.810 73.8285
12.965268 76.853 73.4267
13.059220 76.896 73.0273
13.153852 76.939 72.6299
13.249170 76.982 72.2343
13.345179 77.026 71.8397
13.441884 77.069 71.4458
13.539289 77.112 71.0520
13.637401 77.156 70.6579
13.736223 77.200 70.2630
13.835761 77.243 69.8671
13.936021 77.286 69.4697
14.037007 77.329 69.0708
14.138725 77.372 68.6703
14.241180 77.415 68.2682
14.344377 77.457 67.8647
14.448323 77.498 67.4598
14.553021 77.539 67.0540
14.658478 77.579 66.6474
14.764700 77.619 66.2404
14.871691 77.658 65.8335
14.979457 77.696 65.4270
15.088005 77.733 65.0214
15.197339 77.770 64.6171
15.307465 77.806 64.2144
15.418389 77.841 63.8138
15.530117 77.875 63.4158
15.642655 77.909 63.0206
15.756008 77.942 62.6287
15.870182 77.975 62.2402
15.985184 78.007 61.8555
16.101019 78.039 61.4746
16.217694 78.070 61.0975
16.335214 78.101 60.7240
16.453586 78.133 60.3539
16.572815 78.164 59.9866
16.692909 78.195 59.6216
16.813872 78.227 59.2579
16.935713 78.259 58.8947
17.058436 78.291 58.5309
17.182048 78.323 58.1656
17.306556 78.355 57.7978
17.431967 78.387 57.4267
17.558286 78.419 57.0516
17.685521 78.451 56.6723
17.813677 78.482 56.2887
17.942762 78.513 55.9010
18.072783 78.543 55.5098
18.203746 78.571 55.1158
18.335658 78.599 54.7200
18.468526 78.626 54.3233
18.602356 78.651 53.9267
18.737156 78.676 53.5309
18.872934 78.700 53.1366
19.009695 78.723 52.7438
19.147447 78.746 52.3525
19.286197 78.768 51.9626
19.425953 78.790 51.5734
19.566721 78.812 51.1846
19.708510 78.832 50.7957
19.851326 78.853 50.4067
19.995177 78.872 50.0178
20.140070 78.890 49.6296
20.286013 78.908 49.2432
20.433014 78.924 48.8601
20.581080 78.939 48.4817
20.730219 78.954 48.1096
20.880439 78.967 47.7452
21.031747 78.980 47.3893
21.184152 78.993 47.0425
21.337661 79.005 46.7047
21.492282 79.018 46.3752
21.648024 79.031 46.0536
21.804895 79.044 45.7392
21.962902 79.057 45.4318
22.122054 79.070 45.1320
22.282360 79.084 44.8409
22.443827 79.097 44.5607
22.606464 79.110 44.2935
22.770280 79.124 44.0417
22.935283 79.140 43.8065
23.101481 79.157 43.5877
23.268884 79.178 43.3827
23.437500 79.202 43.1864
23.607338 79.231 42.9909
23.778406 79.266 42.7866
23.950714 79.304 42.5627
24.124271 79.347 42.3093
24.299086 79.391 42.0184
24.475167 79.435 41.6857
24.652524 79.476 41.3118
24.831166 79.513 40.9022
25.011103 79.543 40.4669
25.192344 79.565 40.0199
25.374898 79.579 39.5767
25.558775 79.586 39.1530
25.743984 79.587 38.7618
25.930536 79.585 38.4123
26.118439 79.581 38.1077
26.307704 79.578 37.8453
26.498341 79.579 37.6168
26.690359 79.584 37.4099
26.883768 79.594 37.2103
27.078579 79.610 37.0049
27.274801 79.628 36.7833
27.472446 79.648 36.5394
27.671522 79.669 36.2719
27.872042 79.688 35.9833
28.074014 79.705 35.6787
28.277450 79.719 35.3640
28.482360 79.732 35.0444
28.688755 79.743 34.7232
28.896645 79.752 34.4019
29.106042 79.760 34.0804
29.316957 79.767 33.7578
29.529400 79.773 33.4338
29.743382 79.778 33.1096
29.958915 79.780 32.7878
30.176009 79.781 32.4722
30.394677 79.781 32.1669
30.614929 79.779 31.8752
30.836778 79.778 31.5984
31.060234 79.777 31.3354
31.285309 79.778 31.0832
31.512015 79.781 30.8373
31.740364 79.786 30.5931
31.970368 79.792 30.3471
32.202039 79.800 30.0974
32.435388 79.807 29.8438
32.670428 79.815 29.5875
32.907171 79.823 29.3299
33.145630 79.831 29.0722
33.385817 79.839 28.8142
33.627745 79.848 28.5553
33.871425 79.856 28.2942
34.116871 79.864 28.0299
34.364096 79.871 27.7627
34.613113 79.877 27.4940
34.863934 79.882 27.2264
35.116572 79.886 26.9628
35.371041 79.888 26.7057
35.627354 79.889 26.4568
35.885525 79.890 26.2164
36.145566 79.891 25.9836
36.407492 79.892 25.7571
36.671316 79.894 25.5353
36.937051 79.896 25.3166
37.204712 79.898 25.1000
37.474313 79.900 24.8840
37.745867 79.904 24.6672
38.019389 79.907 24.4480
38.294893 79.911 24.2246
38.572394 79.915 23.9961
38.851905 79.919 23.7628
39.133442 79.922 23.5261
39.417019 79.924 23.2891
39.702651 79.925 23.0542
39.990353 79.926 22.8237
40.280140 79.926 22.5980
40.572026 79.927 22.3761
40.866028 79.929 22.1558
41.162160 79.930 21.9356
41.460438 79.931 21.7151
41.760877 79.931 21.4957
42.063494 79.931 21.2804
42.368303 79.930 21.0723
42.675322 79.928 20.8730
42.984565 79.927 20.6828
43.296048 79.927 20.4992
43.609789 79.928 20.3188
43.925804 79.929 20.1379
44.244108 79.931 19.9532
44.564719 79.933 19.7631
44.887654 79.935 19.5669
45.212928 79.935 19.3656
45.540560 79.934 19.1617
45.870565 79.932 18.9590
46.202962 79.928 18.7620
46.537768 79.923 18.5745
46.875000 79.918 18.3977
47.214676 79.914 18.2297
47.556813 79.912 18.0656
47.901429 79.911 17.8990
48.248542 79.910 17.7264
48.598171 79.910 17.5472
48.950334 79.909 17.3644
49.305048 79.907 17.1827
49.662333 79.905 17.0050
50.022206 79.902 16.8315
50.384688 79.901 16.6595
50.749796 79.900 16.4856
51.117550 79.899 16.3081
51.487969 79.897 16.1278
51.861072 79.894 15.9474
52.236879 79.890 15.7696
52.615409 79.886 15.5961
52.996681 79.881 15.4263
53.380717 79.877 15.2584
53.767536 79.873 15.0901
54.157158 79.869 14.9196
54.549603 79.864 14.7465
54.944892 79.860 14.5712
55.343045 79.855 14.3948
55.744084 79.850 14.2181
56.148028 79.845 14.0409
56.554900 79.841 13.8627
56.964720 79.835 13.6839
57.377510 79.830 13.5069
57.793291 79.823 13.3364
58.212085 79.816 13.1774
58.633914 79.810 13.0328
59.058799 79.805 12.9015
59.486764 79.802 12.7784
59.917829 79.800 12.6573
60.352019 79.800 12.5334
60.789354 79.800 12.4047
61.229859 79.800 12.2725
61.673556 79.799 12.1392
62.120468 79.797 12.0065
62.570618 79.795 11.8741
63.024031 79.792 11.7400
63.480729 79.789 11.6018
63.940736 79.785 11.4584
64.404077 79.781 11.3102
64.870776 79.775 11.1580
65.340856 79.769 11.0028
65.814343 79.761 10.8455
66.291261 79.753 10.6880
66.771635 79.743 10.5342
67.255489 79.734 10.3878
67.742850 79.724 10.2503
68.233743 79.716 10.1199
68.728193 79.709 9.9933
69.226226 79.703 9.8677
69.727867 79.697 9.7427
70.233144 79.692 9.6182
70.742083 79.687 9.4933
71.254709 79.682 9.3668
71.771050 79.677 9.2384
72.291132 79.671 9.1097
72.814984 79.664 8.9830
73.342631 79.656 8.8595
73.874102 79.647 8.7388
74.409424 79.638 8.6204
74.948626 79.628 8.5052
75.491734 79.617 8.3944
76.038779 79.606 8.2889
76.589787 79.595 8.1881
77.144788 79.585 8.0900
77.703811 79.574 7.9929
78.266885 79.564 7.8959
78.834039 79.554 7.7989
79.405303 79.544 7.7019
79.980706 79.535 7.6045
80.560280 79.526 7.5056
81.144053 79.517 7.4035
81.732056 79.510 7.2951
82.324320 79.503 7.1774
82.920876 79.495 7.0498
83.521755 79.487 6.9150
84.126988 79.479 6.7772
84.736607 79.470 6.6395
85.350643 79.460 6.5035
85.969129 79.450 6.3727
86.592097 79.439 6.2528
87.219579 79.428 6.1489
87.851608 79.418 6.0608
88.488217 79.409 5.9830
89.129439 79.402 5.9084
89.775308 79.394 5.8329
90.425856 79.386 5.7557
91.081119 79.377 5.6792
91.741131 79.367 5.6056
92.405925 79.356 5.5364
93.075536 79.345 5.4698
93.750000 79.334 5.4012
94.429351 79.323 5.3249
95.113625 79.311 5.2378
95.802858 79.299 5.1415
96.497085 79.285 5.0414
97.196342 79.269 4.9449
97.900667 79.253 4.8577
98.610096 79.237 4.7816
99.324665 79.222 4.7142
100.044413 79.208 4.6526
