* Measurement data measured by REW V5.31.3
* Source: Headset (3- CX31993 HIFI AUDIO), MICROPHONE (Master Volume), R, volume: 0.400
* Format: 256k Log Swept Sine, 1 sweep at -11.9 dBFS with no timing reference
* Dated: 04 11, 25 4:04:26 PM
* REW Settings:
*  C-weighting compensation: Off
*  Target level: 75.0 dB
* Note: ; 
* Measurement: Tangzu Wan'er 2 R
* Smoothing: 1/12 octave
* Frequency Step: 96 ppo
* Start Frequency: 0.36621094 Hz
*
* Freq(Hz) SPL(dB) Phase(degrees)
0.366211 41.505 7.7522
0.368865 41.526 7.8267
0.371538 41.556 7.9373
0.374230 41.594 8.0745
0.376942 41.636 8.2301
0.379673 41.681 8.3981
0.382424 41.728 8.5747
0.385196 41.777 8.7574
0.387987 41.826 8.9448
0.390798 41.875 9.1363
0.393630 41.925 9.3313
0.396483 41.976 9.5298
0.399356 42.027 9.7315
0.402250 42.078 9.9365
0.405165 42.130 10.1447
0.408101 42.182 10.3562
0.411058 42.235 10.5708
0.414037 42.288 10.7887
0.417037 42.341 11.0098
0.420059 42.395 11.2342
0.423103 42.449 11.4617
0.426169 42.503 11.6924
0.429257 42.558 11.9263
0.432368 42.613 12.1634
0.435501 42.669 12.4036
0.438656 42.725 12.6469
0.441835 42.781 12.8933
0.445037 42.838 13.1428
0.448262 42.896 13.3953
0.451510 42.953 13.6508
0.454782 43.011 13.9092
0.458077 43.070 14.1705
0.461397 43.129 14.4346
0.464740 43.188 14.7015
0.468108 43.248 14.9711
0.471500 43.308 15.2433
0.474917 43.369 15.5181
0.478358 43.430 15.7953
0.481825 43.492 16.0749
0.485316 43.554 16.3568
0.488833 43.616 16.6408
0.492375 43.679 16.9270
0.495943 43.742 17.2150
0.499537 43.806 17.5050
0.503157 43.871 17.7966
0.506803 43.935 18.0898
0.510475 44.001 18.3845
0.514175 44.066 18.6805
0.517900 44.132 18.9776
0.521653 44.199 19.2757
0.525434 44.266 19.5747
0.529241 44.334 19.8743
0.533076 44.402 20.1744
0.536939 44.471 20.4748
0.540830 44.540 20.7754
0.544749 44.609 21.0759
0.548696 44.680 21.3761
0.552673 44.750 21.6759
0.556677 44.821 21.9750
0.560711 44.893 22.2733
0.564774 44.965 22.5705
0.568867 45.038 22.8663
0.572989 45.111 23.1607
0.577141 45.185 23.4534
0.581324 45.259 23.7441
0.585536 45.334 24.0326
0.589779 45.409 24.3188
0.594053 45.485 24.6023
0.598358 45.562 24.8830
0.602694 45.639 25.1605
0.607061 45.716 25.4348
0.611460 45.795 25.7056
0.615891 45.873 25.9725
0.620354 45.953 26.2356
0.624849 46.032 26.4944
0.629377 46.113 26.7488
0.633938 46.194 26.9986
0.638532 46.275 27.2435
0.643159 46.358 27.4834
0.647819 46.441 27.7181
0.652514 46.524 27.9474
0.657242 46.608 28.1710
0.662005 46.693 28.3888
0.666802 46.778 28.6007
0.671634 46.864 28.8064
0.676501 46.950 29.0058
0.681403 47.037 29.1988
0.686341 47.125 29.3851
0.691314 47.214 29.5648
0.696324 47.303 29.7377
0.701370 47.393 29.9038
0.706452 47.484 30.0631
0.711571 47.576 30.2158
0.716728 47.669 30.3623
0.721921 47.765 30.5030
0.727153 47.863 30.6391
0.732422 47.964 30.7717
0.737729 48.068 30.9022
0.743075 48.176 31.0322
0.748460 48.287 31.1626
0.753883 48.400 31.2940
0.759346 48.516 31.4266
0.764849 48.634 31.5606
0.770391 48.755 31.6955
0.775974 48.877 31.8312
0.781597 49.001 31.9673
0.787261 49.127 32.1033
0.792966 49.255 32.2388
0.798712 49.385 32.3735
0.804500 49.516 32.5069
0.810329 49.649 32.6387
0.816201 49.785 32.7684
0.822116 49.922 32.8957
0.828073 50.060 33.0201
0.834074 50.201 33.1414
0.840118 50.343 33.2592
0.846206 50.487 33.3731
0.852338 50.632 33.4828
0.858514 50.779 33.5879
0.864735 50.927 33.6883
0.871001 51.077 33.7834
0.877313 51.229 33.8732
0.883670 51.382 33.9572
0.890074 51.536 34.0353
0.896524 51.692 34.1070
0.903020 51.848 34.1723
0.909564 52.006 34.2308
0.916155 52.166 34.2822
0.922794 52.326 34.3265
0.929481 52.488 34.3632
0.936216 52.650 34.3923
0.943000 52.813 34.4135
0.949834 52.977 34.4267
0.956717 53.142 34.4315
0.963649 53.308 34.4280
0.970632 53.474 34.4158
0.977666 53.641 34.3948
0.984750 53.808 34.3649
0.991886 53.975 34.3259
0.999074 54.143 34.2776
1.006314 54.311 34.2200
1.013606 54.479 34.1529
1.020951 54.647 34.0762
1.028349 54.815 33.9898
1.035801 54.982 33.8936
1.043307 55.149 33.7875
1.050867 55.315 33.6717
1.058482 55.481 33.5460
1.066152 55.646 33.4108
1.073878 55.811 33.2665
1.081660 55.974 33.1136
1.089498 56.137 32.9534
1.097393 56.299 32.7872
1.105345 56.461 32.6168
1.113355 56.622 32.4439
1.121423 56.783 32.2698
1.129549 56.944 32.0954
1.137734 57.105 31.9213
1.145979 57.266 31.7476
1.154283 57.427 31.5742
1.162647 57.588 31.4010
1.171072 57.749 31.2277
1.179558 57.910 31.0540
1.188106 58.072 30.8797
1.196715 58.233 30.7043
1.205387 58.394 30.5276
1.214122 58.556 30.3494
1.222920 58.717 30.1692
1.231782 58.879 29.9867
1.240708 59.040 29.8018
1.249699 59.202 29.6141
1.258754 59.364 29.4232
1.267876 59.525 29.2290
1.277063 59.687 29.0311
1.286318 59.849 28.8294
1.295639 60.011 28.6234
1.305027 60.173 28.4130
1.314484 60.335 28.1979
1.324009 60.497 27.9779
1.333604 60.659 27.7526
1.343268 60.821 27.5219
1.353002 60.983 27.2855
1.362806 61.145 27.0432
1.372681 61.308 26.7947
1.382628 61.470 26.5399
1.392647 61.632 26.2784
1.402739 61.795 26.0103
1.412904 61.958 25.7354
1.423142 62.120 25.4536
1.433455 62.283 25.1653
1.443843 62.445 24.8708
1.454305 62.608 24.5708
1.464844 62.770 24.2665
1.475459 62.933 23.9592
1.486150 63.094 23.6500
1.496920 63.256 23.3399
1.507767 63.417 23.0295
1.518693 63.578 22.7191
1.529698 63.738 22.4087
1.540783 63.897 22.0982
1.551948 64.057 21.7872
1.563194 64.215 21.4756
1.574521 64.374 21.1629
1.585931 64.531 20.8488
1.597423 64.689 20.5330
1.608999 64.846 20.2151
1.620658 65.003 19.8947
1.632402 65.159 19.5715
1.644232 65.315 19.2451
1.656146 65.471 18.9152
1.668147 65.626 18.5813
1.680235 65.781 18.2433
1.692411 65.936 17.9007
1.704675 66.091 17.5531
1.717028 66.246 17.2003
1.729470 66.400 16.8419
1.742003 66.555 16.4776
1.754626 66.709 16.1070
1.767341 66.863 15.7300
1.780147 67.017 15.3464
1.793047 67.172 14.9562
1.806040 67.326 14.5593
1.819128 67.480 14.1563
1.832310 67.633 13.7477
1.845587 67.787 13.3342
1.858961 67.940 12.9168
1.872432 68.092 12.4961
1.886001 68.244 12.0728
1.899667 68.395 11.6471
1.913433 68.546 11.2194
1.927299 68.696 10.7897
1.941265 68.845 10.3583
1.955332 68.994 9.9250
1.969501 69.142 9.4900
1.983773 69.290 9.0531
1.998148 69.437 8.6143
2.012627 69.584 8.1735
2.027212 69.730 7.7306
2.041902 69.875 7.2854
2.056698 70.021 6.8379
2.071602 70.166 6.3878
2.086614 70.310 5.9350
2.101734 70.454 5.4792
2.116964 70.598 5.0203
2.132304 70.742 4.5581
2.147756 70.886 4.0924
2.163320 71.029 3.6229
2.178996 71.172 3.1497
2.194786 71.315 2.6726
2.210690 71.457 2.1919
2.226710 71.599 1.7076
2.242845 71.740 1.2201
2.259098 71.880 0.7296
2.275468 72.019 0.2365
2.291957 72.158 -0.2591
2.308566 72.296 -0.7567
2.325295 72.433 -1.2563
2.342145 72.570 -1.7576
2.359117 72.706 -2.2605
2.376212 72.841 -2.7647
2.393431 72.976 -3.2704
2.410775 73.110 -3.7772
2.428244 73.244 -4.2853
2.445840 73.377 -4.7946
2.463564 73.510 -5.3051
2.481416 73.642 -5.8169
2.499397 73.774 -6.3301
2.517509 73.906 -6.8450
2.535752 74.037 -7.3617
2.554127 74.168 -7.8805
2.572635 74.298 -8.4017
2.591277 74.427 -8.9257
2.610055 74.556 -9.4524
2.628968 74.684 -9.9818
2.648019 74.811 -10.5139
2.667208 74.937 -11.0481
2.686535 75.063 -11.5844
2.706003 75.188 -12.1223
2.725612 75.312 -12.6614
2.745363 75.435 -13.2015
2.765257 75.558 -13.7422
2.785295 75.680 -14.2833
2.805478 75.801 -14.8246
2.825808 75.922 -15.3658
2.846285 76.043 -15.9069
2.866910 76.163 -16.4479
2.887685 76.282 -16.9889
2.908611 76.402 -17.5301
2.929688 76.520 -18.0720
2.950917 76.638 -18.6150
2.972301 76.755 -19.1595
2.993839 76.871 -19.7057
3.015534 76.987 -20.2536
3.037386 77.102 -20.8030
3.059396 77.216 -21.3536
3.081565 77.329 -21.9052
3.103896 77.441 -22.4572
3.126388 77.553 -23.0093
3.149043 77.664 -23.5611
3.171862 77.775 -24.1123
3.194847 77.885 -24.6626
3.217998 77.995 -25.2119
3.241317 78.104 -25.7599
3.264805 78.213 -26.3070
3.288463 78.321 -26.8533
3.312293 78.428 -27.3992
3.336295 78.535 -27.9452
3.360471 78.641 -28.4917
3.384822 78.747 -29.0387
3.409350 78.852 -29.5861
3.434056 78.956 -30.1339
3.458940 79.059 -30.6816
3.484005 79.162 -31.2291
3.509252 79.264 -31.7759
3.534681 79.366 -32.3218
3.560295 79.467 -32.8665
3.586094 79.568 -33.4097
3.612081 79.669 -33.9514
3.638255 79.769 -34.4917
3.664620 79.868 -35.0309
3.691175 79.967 -35.5691
3.717923 80.066 -36.1068
3.744864 80.164 -36.6442
3.772001 80.261 -37.1814
3.799335 80.358 -37.7182
3.826866 80.455 -38.2546
3.854597 80.550 -38.7905
3.882529 80.646 -39.3254
3.910664 80.741 -39.8594
3.939002 80.835 -40.3922
3.967546 80.929 -40.9237
3.996296 81.023 -41.4540
4.025255 81.117 -41.9831
4.054423 81.210 -42.5113
4.083804 81.303 -43.0388
4.113396 81.395 -43.5658
4.143204 81.487 -44.0923
4.173227 81.579 -44.6184
4.203468 81.670 -45.1441
4.233928 81.760 -45.6692
4.264609 81.851 -46.1938
4.295512 81.941 -46.7177
4.326639 82.030 -47.2409
4.357992 82.120 -47.7635
4.389572 82.209 -48.2856
4.421380 82.298 -48.8073
4.453419 82.386 -49.3287
4.485691 82.474 -49.8501
4.518196 82.562 -50.3714
4.550936 82.649 -50.8926
4.583914 82.736 -51.4137
4.617131 82.822 -51.9347
4.650589 82.909 -52.4556
4.684289 82.995 -52.9763
4.718233 83.080 -53.4968
4.752424 83.165 -54.0174
4.786862 83.250 -54.5381
4.821549 83.335 -55.0590
4.856488 83.419 -55.5803
4.891680 83.502 -56.1019
4.927127 83.586 -56.6238
4.962831 83.668 -57.1459
4.998794 83.751 -57.6681
5.035017 83.833 -58.1903
5.071503 83.915 -58.7125
5.108253 83.996 -59.2349
5.145270 84.076 -59.7575
5.182555 84.157 -60.2804
5.220110 84.237 -60.8037
5.257937 84.316 -61.3275
5.296038 84.395 -61.8515
5.334415 84.473 -62.3757
5.373071 84.551 -62.8998
5.412006 84.629 -63.4237
5.451224 84.706 -63.9474
5.490725 84.782 -64.4709
5.530514 84.858 -64.9943
5.570590 84.934 -65.5177
5.610957 85.008 -66.0411
5.651616 85.083 -66.5645
5.692570 85.157 -67.0877
5.733821 85.230 -67.6104
5.775370 85.303 -68.1325
5.817221 85.375 -68.6538
5.859375 85.447 -69.1745
5.901834 85.519 -69.6945
5.944602 85.590 -70.2139
5.987679 85.660 -70.7328
6.031068 85.730 -71.2511
6.074771 85.799 -71.7686
6.118792 85.868 -72.2852
6.163131 85.936 -72.8008
6.207792 86.004 -73.3152
6.252776 86.072 -73.8287
6.298086 86.139 -74.3411
6.343725 86.206 -74.8526
6.389694 86.272 -75.3632
6.435996 86.338 -75.8728
6.482634 86.403 -76.3814
6.529610 86.468 -76.8890
6.576926 86.533 -77.3955
6.624585 86.597 -77.9009
6.672590 86.661 -78.4053
6.720942 86.725 -78.9089
6.769645 86.788 -79.4116
6.818700 86.851 -79.9135
6.868111 86.913 -80.4146
6.917881 86.975 -80.9149
6.968010 87.037 -81.4144
7.018504 87.099 -81.9132
7.069362 87.160 -82.4115
7.120590 87.220 -82.9091
7.172189 87.281 -83.4062
7.224161 87.341 -83.9028
7.276511 87.401 -84.3988
7.329239 87.460 -84.8944
7.382350 87.519 -85.3896
7.435845 87.577 -85.8844
7.489729 87.636 -86.3789
7.544002 87.694 -86.8729
7.598669 87.751 -87.3665
7.653732 87.808 -87.8596
7.709194 87.865 -88.3522
7.765058 87.921 -88.8445
7.821327 87.977 -89.3362
7.878004 88.032 -89.8274
7.935091 88.087 -90.3180
7.992592 88.141 -90.8078
8.050510 88.195 -91.2968
8.108847 88.249 -91.7850
8.167607 88.302 -92.2723
8.226793 88.354 -92.7587
8.286408 88.407 -93.2440
8.346454 88.458 -93.7281
8.406936 88.510 -94.2110
8.467856 88.560 -94.6925
8.529218 88.611 -95.1727
8.591024 88.661 -95.6515
8.653278 88.711 -96.1289
8.715983 88.760 -96.6047
8.779143 88.809 -97.0790
8.842760 88.857 -97.5517
8.906839 88.905 -98.0228
8.971381 88.953 -98.4923
9.036392 89.001 -98.9603
9.101873 89.048 -99.4269
9.167829 89.095 -99.8919
9.234263 89.142 -100.3556
9.301178 89.188 -100.8179
9.368578 89.235 -101.2790
9.436467 89.281 -101.7389
9.504847 89.326 -102.1978
9.573723 89.372 -102.6557
9.643099 89.417 -103.1127
9.712976 89.462 -103.5689
9.783361 89.507 -104.0245
9.854255 89.551 -104.4794
9.925663 89.596 -104.9338
9.997588 89.640 -105.3877
10.070035 89.683 -105.8412
10.143007 89.726 -106.2942
10.216507 89.769 -106.7469
10.290540 89.812 -107.1991
10.365109 89.854 -107.6509
10.440219 89.896 -108.1021
10.515873 89.937 -108.5528
10.592076 89.978 -109.0029
10.668830 90.019 -109.4521
10.746141 90.059 -109.9005
10.824012 90.098 -110.3479
10.902447 90.137 -110.7943
10.981451 90.176 -111.2393
11.061027 90.214 -111.6830
11.141180 90.252 -112.1253
11.221913 90.290 -112.5660
11.303232 90.327 -113.0051
11.385140 90.363 -113.4425
11.467641 90.400 -113.8783
11.550741 90.435 -114.3123
11.634442 90.471 -114.7447
11.718750 90.506 -115.1756
11.803669 90.541 -115.6049
11.889203 90.576 -116.0329
11.975357 90.610 -116.4596
12.062136 90.644 -116.8852
12.149543 90.678 -117.3099
12.237583 90.712 -117.7337
12.326262 90.745 -118.1567
12.415583 90.778 -118.5791
12.505552 90.810 -119.0010
12.596172 90.843 -119.4224
12.687449 90.874 -119.8432
12.779387 90.905 -120.2633
12.871992 90.936 -120.6828
12.965268 90.967 -121.1013
13.059220 90.996 -121.5188
13.153852 91.026 -121.9349
13.249170 91.054 -122.3495
13.345179 91.083 -122.7622
13.441884 91.110 -123.1730
13.539289 91.138 -123.5815
13.637401 91.164 -123.9876
13.736223 91.191 -124.3912
13.835761 91.217 -124.7925
13.936021 91.243 -125.1914
14.037007 91.269 -125.5881
14.138725 91.295 -125.9831
14.241180 91.321 -126.3766
14.344377 91.346 -126.7692
14.448323 91.372 -127.1613
14.553021 91.398 -127.5535
14.658478 91.423 -127.9463
14.764700 91.449 -128.3400
14.871691 91.474 -128.7350
14.979457 91.498 -129.1314
15.088005 91.523 -129.5293
15.197339 91.546 -129.9284
15.307465 91.569 -130.3283
15.418389 91.592 -130.7283
15.530117 91.613 -131.1278
15.642655 91.634 -131.5257
15.756008 91.654 -131.9211
15.870182 91.673 -132.3130
15.985184 91.691 -132.7005
16.101019 91.709 -133.0828
16.217694 91.727 -133.4594
16.335214 91.745 -133.8301
16.453586 91.762 -134.1953
16.572815 91.781 -134.5554
16.692909 91.800 -134.9115
16.813872 91.819 -135.2649
16.935713 91.840 -135.6174
17.058436 91.861 -135.9708
17.182048 91.884 -136.3269
17.306556 91.907 -136.6875
17.431967 91.931 -137.0542
17.558286 91.955 -137.4281
17.685521 91.978 -137.8099
17.813677 92.002 -138.1994
17.942762 92.024 -138.5962
18.072783 92.045 -138.9990
18.203746 92.065 -139.4060
18.335658 92.083 -139.8151
18.468526 92.100 -140.2240
18.602356 92.114 -140.6300
18.737156 92.128 -141.0309
18.872934 92.139 -141.4246
19.009695 92.150 -141.8096
19.147447 92.160 -142.1850
19.286197 92.170 -142.5505
19.425953 92.180 -142.9063
19.566721 92.190 -143.2534
19.708510 92.201 -143.5932
19.851326 92.212 -143.9272
19.995177 92.224 -144.2570
20.140070 92.237 -144.5841
20.286013 92.250 -144.9099
20.433014 92.263 -145.2353
20.581080 92.277 -145.5606
20.730219 92.290 -145.8860
20.880439 92.304 -146.2115
21.031747 92.317 -146.5365
21.184152 92.329 -146.8608
21.337661 92.342 -147.1842
21.492282 92.354 -147.5064
21.648024 92.366 -147.8276
21.804895 92.378 -148.1481
21.962902 92.389 -148.4679
22.122054 92.400 -148.7872
22.282360 92.410 -149.1059
22.443827 92.419 -149.4232
22.606464 92.427 -149.7381
22.770280 92.434 -150.0491
22.935283 92.441 -150.3544
23.101481 92.446 -150.6523
23.268884 92.451 -150.9413
23.437500 92.456 -151.2207
23.607338 92.462 -151.4906
23.778406 92.468 -151.7525
23.950714 92.476 -152.0091
24.124271 92.485 -152.2642
24.299086 92.497 -152.5222
24.475167 92.510 -152.7881
24.652524 92.525 -153.0661
24.831166 92.540 -153.3597
25.011103 92.555 -153.6708
25.192344 92.569 -153.9996
25.374898 92.582 -154.3443
25.558775 92.592 -154.7016
25.743984 92.599 -155.0669
25.930536 92.603 -155.4350
26.118439 92.604 -155.8006
26.307704 92.603 -156.1594
26.498341 92.600 -156.5081
26.690359 92.596 -156.8450
26.883768 92.592 -157.1701
27.078579 92.587 -157.4846
27.274801 92.583 -157.7908
27.472446 92.580 -158.0913
27.671522 92.578 -158.3885
27.872042 92.576 -158.6842
28.074014 92.574 -158.9790
28.277450 92.573 -159.2729
28.482360 92.571 -159.5647
28.688755 92.570 -159.8531
28.896645 92.569 -160.1370
29.106042 92.569 -160.4160
29.316957 92.569 -160.6908
29.529400 92.571 -160.9631
29.743382 92.574 -161.2356
29.958915 92.579 -161.5113
30.176009 92.584 -161.7933
30.394677 92.590 -162.0836
30.614929 92.596 -162.3828
30.836778 92.601 -162.6901
31.060234 92.605 -163.0031
31.285309 92.607 -163.3185
31.512015 92.607 -163.6323
31.740364 92.606 -163.9412
31.970368 92.604 -164.2427
32.202039 92.600 -164.5355
32.435388 92.597 -164.8199
32.670428 92.593 -165.0969
32.907171 92.589 -165.3683
33.145630 92.586 -165.6358
33.385817 92.582 -165.9005
33.627745 92.578 -166.1629
33.871425 92.574 -166.4229
34.116871 92.570 -166.6799
34.364096 92.565 -166.9337
34.613113 92.560 -167.1842
34.863934 92.556 -167.4322
35.116572 92.551 -167.6788
35.371041 92.547 -167.9255
35.627354 92.543 -168.1735
35.885525 92.539 -168.4239
36.145566 92.535 -168.6770
36.407492 92.531 -168.9324
36.671316 92.527 -169.1896
36.937051 92.522 -169.4474
37.204712 92.517 -169.7048
37.474313 92.511 -169.9613
37.745867 92.506 -170.2165
38.019389 92.500 -170.4707
38.294893 92.495 -170.7245
38.572394 92.490 -170.9791
38.851905 92.485 -171.2351
39.133442 92.480 -171.4927
39.417019 92.474 -171.7513
39.702651 92.468 -172.0094
39.990353 92.461 -172.2648
40.280140 92.454 -172.5153
40.572026 92.446 -172.7593
40.866028 92.438 -172.9965
41.162160 92.431 -173.2278
41.460438 92.424 -173.4553
41.760877 92.417 -173.6810
42.063494 92.411 -173.9068
42.368303 92.405 -174.1332
42.675322 92.398 -174.3598
42.984565 92.391 -174.5859
43.296048 92.383 -174.8106
43.609789 92.375 -175.0338
43.925804 92.367 -175.2558
44.244108 92.359 -175.4774
44.564719 92.351 -175.6993
44.887654 92.342 -175.9214
45.212928 92.332 -176.1431
45.540560 92.322 -176.3639
45.870565 92.313 -176.5836
46.202962 92.303 -176.8029
46.537768 92.293 -177.0233
46.875000 92.283 -177.2466
47.214676 92.273 -177.4739
47.556813 92.263 -177.7052
47.901429 92.252 -177.9392
48.248542 92.240 -178.1733
48.598171 92.227 -178.4048
48.950334 92.213 -178.6318
49.305048 92.199 -178.8532
49.662333 92.185 -179.0695
50.022206 92.171 -179.2820
50.384688 92.158 -179.4924
50.749796 92.145 -179.7021
51.117550 92.133 -179.9119
51.487969 92.120 179.8782
51.861072 92.107 179.6682
52.236879 92.094 179.4586
52.615409 92.080 179.2498
52.996681 92.067 179.0423
53.380717 92.053 178.8365
53.767536 92.039 178.6324
54.157158 92.025 178.4300
54.549603 92.011 178.2291
54.944892 91.997 178.0294
55.343045 91.982 177.8309
55.744084 91.967 177.6335
56.148028 91.953 177.4375
56.554900 91.937 177.2432
56.964720 91.922 177.0510
57.377510 91.906 176.8613
57.793291 91.890 176.6741
58.212085 91.874 176.4895
58.633914 91.858 176.3065
59.058799 91.842 176.1242
59.486764 91.826 175.9419
59.917829 91.810 175.7592
60.352019 91.793 175.5763
60.789354 91.775 175.3937
61.229859 91.758 175.2113
61.673556 91.740 175.0286
62.120468 91.722 174.8452
62.570618 91.704 174.6614
63.024031 91.685 174.4783
63.480729 91.666 174.2974
63.940736 91.647 174.1191
64.404077 91.629 173.9430
64.870776 91.611 173.7677
65.340856 91.593 173.5921
65.814343 91.576 173.4160
66.291261 91.558 173.2403
66.771635 91.540 173.0668
67.255489 91.522 172.8975
67.742850 91.505 172.7334
68.233743 91.487 172.5748
68.728193 91.469 172.4215
69.226226 91.451 172.2734
69.727867 91.435 172.1286
70.233144 91.419 171.9821
70.742083 91.403 171.8256
71.254709 91.388 171.6526
71.771050 91.369 171.4641
72.291132 91.347 171.2704
72.814984 91.320 171.0854
73.342631 91.292 170.9197
73.874102 91.263 170.7752
74.409424 91.235 170.6466
74.948626 91.208 170.5249
75.491734 91.184 170.4022
76.038779 91.161 170.2732
76.589787 91.139 170.1368
77.144788 91.116 169.9950
77.703811 91.094 169.8513
78.266885 91.071 169.7089
78.834039 91.048 169.5694
79.405303 91.026 169.4321
79.980706 91.004 169.2947
80.560280 90.982 169.1549
81.144053 90.959 169.0129
81.732056 90.936 168.8716
82.324320 90.912 168.7339
82.920876 90.888 168.6008
83.521755 90.864 168.4709
84.126988 90.839 168.3433
84.736607 90.815 168.2179
85.350643 90.790 168.0946
85.969129 90.765 167.9728
86.592097 90.740 167.8520
87.219579 90.714 167.7324
87.851608 90.689 167.6152
88.488217 90.663 167.5009
89.129439 90.637 167.3888
89.775308 90.611 167.2780
90.425856 90.586 167.1678
91.081119 90.560 167.0579
91.741131 90.533 166.9491
92.405925 90.506 166.8425
93.075536 90.479 166.7393
93.750000 90.451 166.6399
94.429351 90.423 166.5437
95.113625 90.394 166.4496
