* Measurement data measured by REW V5.31.3
* Source: Headset (CX31993 HIFI AUDIO), MICROPHONE (Master Volume), R, volume: 0.250
* Format: 256k Log Swept Sine, 1 sweep at -12.0 dBFS with no timing reference
* Dated: 01 11, 25 3:28:07 PM
* REW Settings:
*  C-weighting compensation: Off
*  Target level: 75.0 dB
* Note: ; 
* Measurement: Thieaudio Oracle mk3 R
* Smoothing: 1/12 octave
* Frequency Step: 96 ppo
* Start Frequency: 0.36621094 Hz
*
* Freq(Hz) SPL(dB) Phase(degrees)
0.366211 57.922 -44.1206
0.368865 57.927 -44.2138
0.371538 57.933 -44.3531
0.374230 57.941 -44.5272
0.376942 57.950 -44.7265
0.379673 57.960 -44.9441
0.382424 57.970 -45.1752
0.385196 57.981 -45.4170
0.387987 57.991 -45.6679
0.390798 58.002 -45.9270
0.393630 58.013 -46.1939
0.396483 58.024 -46.4685
0.399356 58.035 -46.7506
0.402250 58.046 -47.0403
0.405165 58.058 -47.3377
0.408101 58.069 -47.6428
0.411058 58.080 -47.9557
0.414037 58.092 -48.2766
0.417037 58.103 -48.6055
0.420059 58.115 -48.9424
0.423103 58.127 -49.2876
0.426169 58.139 -49.6410
0.429257 58.150 -50.0028
0.432368 58.162 -50.3731
0.435501 58.175 -50.7519
0.438656 58.187 -51.1394
0.441835 58.199 -51.5355
0.445037 58.211 -51.9405
0.448262 58.224 -52.3543
0.451510 58.236 -52.7770
0.454782 58.249 -53.2088
0.458077 58.262 -53.6496
0.461397 58.274 -54.0996
0.464740 58.287 -54.5588
0.468108 58.300 -55.0272
0.471500 58.313 -55.5050
0.474917 58.327 -55.9921
0.478358 58.340 -56.4886
0.481825 58.353 -56.9946
0.485316 58.367 -57.5101
0.488833 58.380 -58.0350
0.492375 58.394 -58.5696
0.495943 58.408 -59.1136
0.499537 58.421 -59.6673
0.503157 58.435 -60.2305
0.506803 58.449 -60.8033
0.510475 58.464 -61.3857
0.514175 58.478 -61.9776
0.517900 58.492 -62.5791
0.521653 58.507 -63.1901
0.525434 58.521 -63.8106
0.529241 58.536 -64.4405
0.533076 58.551 -65.0799
0.536939 58.566 -65.7286
0.540830 58.581 -66.3866
0.544749 58.596 -67.0539
0.548696 58.611 -67.7303
0.552673 58.626 -68.4157
0.556677 58.642 -69.1102
0.560711 58.657 -69.8136
0.564774 58.673 -70.5257
0.568867 58.689 -71.2466
0.572989 58.705 -71.9760
0.577141 58.721 -72.7138
0.581324 58.737 -73.4600
0.585536 58.753 -74.2143
0.589779 58.769 -74.9768
0.594053 58.786 -75.7471
0.598358 58.803 -76.5251
0.602694 58.819 -77.3108
0.607061 58.836 -78.1040
0.611460 58.853 -78.9044
0.615891 58.870 -79.7119
0.620354 58.887 -80.5265
0.624849 58.905 -81.3478
0.629377 58.922 -82.1757
0.633938 58.940 -83.0101
0.638532 58.957 -83.8508
0.643159 58.975 -84.6976
0.647819 58.993 -85.5503
0.652514 59.011 -86.4089
0.657242 59.030 -87.2731
0.662005 59.048 -88.1427
0.666802 59.066 -89.0176
0.671634 59.085 -89.8977
0.676501 59.104 -90.7828
0.681403 59.123 -91.6728
0.686341 59.142 -92.5675
0.691314 59.161 -93.4667
0.696324 59.181 -94.3705
0.701370 59.201 -95.2786
0.706452 59.222 -96.1909
0.711571 59.245 -97.1074
0.716728 59.269 -98.0280
0.721921 59.297 -98.9524
0.727153 59.329 -99.8806
0.732422 59.367 -100.8122
0.737729 59.412 -101.7469
0.743075 59.463 -102.6841
0.748460 59.520 -103.6233
0.753883 59.582 -104.5638
0.759346 59.647 -105.5048
0.764849 59.717 -106.4457
0.770391 59.789 -107.3856
0.775974 59.864 -108.3241
0.781597 59.941 -109.2602
0.787261 60.022 -110.1936
0.792966 60.104 -111.1234
0.798712 60.190 -112.0492
0.804500 60.277 -112.9705
0.810329 60.368 -113.8868
0.816201 60.460 -114.7976
0.822116 60.555 -115.7024
0.828073 60.653 -116.6010
0.834074 60.752 -117.4929
0.840118 60.854 -118.3779
0.846206 60.959 -119.2557
0.852338 61.065 -120.1261
0.858514 61.174 -120.9889
0.864735 61.284 -121.8439
0.871001 61.397 -122.6911
0.877313 61.512 -123.5304
0.883670 61.629 -124.3616
0.890074 61.748 -125.1848
0.896524 61.868 -126.0000
0.903020 61.990 -126.8073
0.909564 62.114 -127.6066
0.916155 62.240 -128.3981
0.922794 62.367 -129.1820
0.929481 62.496 -129.9583
0.936216 62.626 -130.7272
0.943000 62.757 -131.4889
0.949834 62.890 -132.2435
0.956717 63.023 -132.9914
0.963649 63.158 -133.7328
0.970632 63.293 -134.4677
0.977666 63.430 -135.1967
0.984750 63.567 -135.9198
0.991886 63.704 -136.6374
0.999074 63.842 -137.3498
1.006314 63.980 -138.0573
1.013606 64.118 -138.7602
1.020951 64.256 -139.4588
1.028349 64.394 -140.1534
1.035801 64.532 -140.8444
1.043307 64.669 -141.5320
1.050867 64.806 -142.2166
1.058482 64.942 -142.8986
1.066152 65.077 -143.5780
1.073878 65.211 -144.2552
1.081660 65.344 -144.9303
1.089498 65.476 -145.6031
1.097393 65.608 -146.2735
1.105345 65.739 -146.9410
1.113355 65.870 -147.6051
1.121423 66.002 -148.2655
1.129549 66.134 -148.9217
1.137734 66.267 -149.5734
1.145979 66.400 -150.2205
1.154283 66.534 -150.8629
1.162647 66.669 -151.5004
1.171072 66.805 -152.1331
1.179558 66.941 -152.7610
1.188106 67.078 -153.3840
1.196715 67.216 -154.0023
1.205387 67.354 -154.6158
1.214122 67.493 -155.2247
1.222920 67.633 -155.8289
1.231782 67.773 -156.4287
1.240708 67.914 -157.0240
1.249699 68.055 -157.6151
1.258754 68.197 -158.2019
1.267876 68.339 -158.7847
1.277063 68.482 -159.3636
1.286318 68.625 -159.9386
1.295639 68.768 -160.5100
1.305027 68.911 -161.0779
1.314484 69.055 -161.6425
1.324009 69.200 -162.2039
1.333604 69.344 -162.7623
1.343268 69.488 -163.3179
1.353002 69.633 -163.8708
1.362806 69.777 -164.4213
1.372681 69.922 -164.9695
1.382628 70.067 -165.5156
1.392647 70.211 -166.0598
1.402739 70.355 -166.6022
1.412904 70.499 -167.1431
1.423142 70.643 -167.6824
1.433455 70.786 -168.2204
1.443843 70.929 -168.7569
1.454305 71.072 -169.2917
1.464844 71.215 -169.8247
1.475459 71.356 -170.3552
1.486150 71.498 -170.8830
1.496920 71.639 -171.4078
1.507767 71.780 -171.9294
1.518693 71.920 -172.4476
1.529698 72.060 -172.9627
1.540783 72.200 -173.4748
1.551948 72.340 -173.9840
1.563194 72.479 -174.4906
1.574521 72.618 -174.9949
1.585931 72.756 -175.4971
1.597423 72.894 -175.9976
1.608999 73.032 -176.4965
1.620658 73.170 -176.9942
1.632402 73.307 -177.4911
1.644232 73.444 -177.9874
1.656146 73.581 -178.4835
1.668147 73.718 -178.9796
1.680235 73.855 -179.4762
1.692411 73.991 -179.9735
1.704675 74.127 179.5280
1.717028 74.263 179.0281
1.729470 74.399 178.5265
1.742003 74.535 178.0226
1.754626 74.671 177.5163
1.767341 74.806 177.0072
1.780147 74.942 176.4950
1.793047 75.077 175.9795
1.806040 75.213 175.4605
1.819128 75.348 174.9381
1.832310 75.483 174.4123
1.845587 75.618 173.8835
1.858961 75.752 173.3521
1.872432 75.886 172.8185
1.886001 76.020 172.2831
1.899667 76.153 171.7462
1.913433 76.285 171.2080
1.927299 76.417 170.6689
1.941265 76.548 170.1290
1.955332 76.679 169.5884
1.969501 76.809 169.0473
1.983773 76.939 168.5057
1.998148 77.068 167.9637
2.012627 77.197 167.4214
2.027212 77.325 166.8787
2.041902 77.453 166.3355
2.056698 77.581 165.7920
2.071602 77.708 165.2479
2.086614 77.835 164.7031
2.101734 77.961 164.1576
2.116964 78.088 163.6111
2.132304 78.214 163.0635
2.147756 78.339 162.5145
2.163320 78.465 161.9639
2.178996 78.590 161.4111
2.194786 78.715 160.8561
2.210690 78.839 160.2984
2.226710 78.963 159.7379
2.242845 79.086 159.1744
2.259098 79.208 158.6083
2.275468 79.330 158.0396
2.291957 79.451 157.4687
2.308566 79.571 156.8958
2.325295 79.691 156.3214
2.342145 79.810 155.7457
2.359117 79.928 155.1690
2.376212 80.045 154.5916
2.393431 80.162 154.0136
2.410775 80.279 153.4353
2.428244 80.395 152.8569
2.445840 80.510 152.2784
2.463564 80.625 151.6999
2.481416 80.739 151.1213
2.499397 80.853 150.5427
2.517509 80.966 149.9636
2.535752 81.079 149.3838
2.554127 81.191 148.8026
2.572635 81.302 148.2195
2.591277 81.413 147.6339
2.610055 81.523 147.0452
2.628968 81.632 146.4534
2.648019 81.740 145.8587
2.667208 81.848 145.2614
2.686535 81.954 144.6617
2.706003 82.060 144.0604
2.725612 82.165 143.4579
2.745363 82.269 142.8547
2.765257 82.372 142.2513
2.785295 82.474 141.6481
2.805478 82.576 141.0457
2.825808 82.677 140.4442
2.846285 82.778 139.8439
2.866910 82.877 139.2448
2.887685 82.976 138.6469
2.908611 83.075 138.0496
2.929688 83.172 137.4522
2.950917 83.269 136.8539
2.972301 83.365 136.2539
2.993839 83.460 135.6518
3.015534 83.554 135.0475
3.037386 83.647 134.4412
3.059396 83.739 133.8334
3.081565 83.830 133.2247
3.103896 83.920 132.6158
3.126388 84.009 132.0074
3.149043 84.097 131.4003
3.171862 84.185 130.7950
3.194847 84.272 130.1923
3.217998 84.358 129.5924
3.241317 84.443 128.9957
3.264805 84.528 128.4020
3.288463 84.612 127.8109
3.312293 84.695 127.2216
3.336295 84.778 126.6334
3.360471 84.859 126.0456
3.384822 84.939 125.4579
3.409350 85.019 124.8704
3.434056 85.097 124.2834
3.458940 85.175 123.6972
3.484005 85.251 123.1127
3.509252 85.327 122.5302
3.534681 85.403 121.9507
3.560295 85.477 121.3745
3.586094 85.552 120.8023
3.612081 85.625 120.2342
3.638255 85.698 119.6704
3.664620 85.771 119.1105
3.691175 85.843 118.5541
3.717923 85.914 118.0006
3.744864 85.984 117.4496
3.772001 86.054 116.9008
3.799335 86.123 116.3543
3.826866 86.191 115.8103
3.854597 86.259 115.2689
3.882529 86.327 114.7307
3.910664 86.394 114.1958
3.939002 86.461 113.6648
3.967546 86.527 113.1379
3.996296 86.594 112.6154
4.025255 86.660 112.0973
4.054423 86.726 111.5835
4.083804 86.792 111.0736
4.113396 86.857 110.5675
4.143204 86.922 110.0647
4.173227 86.987 109.5650
4.203468 87.052 109.0680
4.233928 87.117 108.5735
4.264609 87.181 108.0814
4.295512 87.246 107.5914
4.326639 87.311 107.1036
4.357992 87.376 106.6180
4.389572 87.441 106.1346
4.421380 87.507 105.6534
4.453419 87.572 105.1745
4.485691 87.638 104.6976
4.518196 87.704 104.2224
4.550936 87.770 103.7484
4.583914 87.836 103.2750
4.617131 87.903 102.8018
4.650589 87.969 102.3280
4.684289 88.036 101.8533
4.718233 88.103 101.3773
4.752424 88.171 100.8998
4.786862 88.238 100.4209
4.821549 88.306 99.9405
4.856488 88.374 99.4586
4.891680 88.443 98.9750
4.927127 88.511 98.4894
4.962831 88.580 98.0012
4.998794 88.648 97.5098
5.035017 88.717 97.0148
5.071503 88.786 96.5156
5.108253 88.854 96.0119
5.145270 88.922 95.5034
5.182555 88.991 94.9901
5.220110 89.059 94.4720
5.257937 89.127 93.9492
5.296038 89.194 93.4218
5.334415 89.262 92.8898
5.373071 89.328 92.3532
5.412006 89.394 91.8118
5.451224 89.460 91.2654
5.490725 89.525 90.7137
5.530514 89.589 90.1564
5.570590 89.652 89.5936
5.610957 89.714 89.0254
5.651616 89.776 88.4524
5.692570 89.837 87.8752
5.733821 89.896 87.2944
5.775370 89.954 86.7104
5.817221 90.011 86.1236
5.859375 90.067 85.5339
5.901834 90.122 84.9412
5.944602 90.175 84.3454
5.987679 90.226 83.7470
6.031068 90.277 83.1466
6.074771 90.326 82.5453
6.118792 90.373 81.9442
6.163131 90.419 81.3439
6.207792 90.463 80.7452
6.252776 90.506 80.1481
6.298086 90.547 79.5526
6.343725 90.587 78.9590
6.389694 90.625 78.3679
6.435996 90.662 77.7800
6.482634 90.697 77.1966
6.529610 90.731 76.6186
6.576926 90.764 76.0466
6.624585 90.795 75.4811
6.672590 90.825 74.9221
6.720942 90.854 74.3698
6.769645 90.882 73.8244
6.818700 90.909 73.2865
6.868111 90.935 72.7567
6.917881 90.960 72.2355
6.968010 90.985 71.7234
7.018504 91.009 71.2205
7.069362 91.032 70.7267
7.120590 91.055 70.2418
7.172189 91.078 69.7657
7.224161 91.101 69.2983
7.276511 91.124 68.8395
7.329239 91.147 68.3891
7.382350 91.170 67.9472
7.435845 91.193 67.5133
7.489729 91.217 67.0870
7.544002 91.241 66.6676
7.598669 91.266 66.2543
7.653732 91.291 65.8465
7.709194 91.317 65.4437
7.765058 91.344 65.0455
7.821327 91.371 64.6513
7.878004 91.399 64.2605
7.935091 91.428 63.8723
7.992592 91.457 63.4857
8.050510 91.487 63.1002
8.108847 91.518 62.7151
8.167607 91.550 62.3301
8.226793 91.581 61.9448
8.286408 91.614 61.5587
8.346454 91.647 61.1713
8.406936 91.680 60.7822
8.467856 91.713 60.3909
8.529218 91.747 59.9975
8.591024 91.781 59.6017
8.653278 91.814 59.2034
8.715983 91.848 58.8028
8.779143 91.882 58.3996
8.842760 91.916 57.9938
8.906839 91.949 57.5856
8.971381 91.982 57.1750
9.036392 92.015 56.7621
9.101873 92.048 56.3472
9.167829 92.080 55.9304
9.234263 92.112 55.5116
9.301178 92.144 55.0910
9.368578 92.175 54.6688
9.436467 92.206 54.2449
9.504847 92.236 53.8195
9.573723 92.266 53.3926
9.643099 92.296 52.9643
9.712976 92.325 52.5344
9.783361 92.353 52.1031
9.854255 92.381 51.6702
9.925663 92.408 51.2359
9.997588 92.435 50.8000
10.070035 92.461 50.3626
10.143007 92.486 49.9238
10.216507 92.510 49.4837
10.290540 92.534 49.0424
10.365109 92.557 48.6002
10.440219 92.579 48.1572
10.515873 92.599 47.7140
10.592076 92.619 47.2709
10.668830 92.637 46.8286
10.746141 92.655 46.3874
10.824012 92.671 45.9481
10.902447 92.686 45.5116
10.981451 92.699 45.0785
11.061027 92.712 44.6498
11.141180 92.723 44.2261
11.221913 92.733 43.8084
11.303232 92.742 43.3974
11.385140 92.750 42.9940
11.467641 92.757 42.5987
11.550741 92.764 42.2120
11.634442 92.770 41.8344
11.718750 92.776 41.4661
11.803669 92.782 41.1071
11.889203 92.788 40.7573
11.975357 92.794 40.4162
12.062136 92.801 40.0833
12.149543 92.808 39.7577
12.237583 92.816 39.4385
12.326262 92.826 39.1245
12.415583 92.836 38.8142
12.505552 92.847 38.5063
12.596172 92.860 38.1993
12.687449 92.873 37.8918
12.779387 92.888 37.5822
12.871992 92.903 37.2693
12.965268 92.919 36.9520
13.059220 92.936 36.6292
13.153852 92.953 36.3004
13.249170 92.970 35.9652
13.345179 92.986 35.6234
13.441884 93.003 35.2754
13.539289 93.019 34.9218
13.637401 93.034 34.5634
13.736223 93.048 34.2013
13.835761 93.061 33.8369
13.936021 93.072 33.4717
14.037007 93.083 33.1072
14.138725 93.093 32.7449
14.241180 93.101 32.3865
14.344377 93.109 32.0331
14.448323 93.116 31.6860
14.553021 93.122 31.3457
14.658478 93.129 31.0128
14.764700 93.135 30.6873
14.871691 93.142 30.3687
14.979457 93.150 30.0562
15.088005 93.159 29.7485
15.197339 93.169 29.4441
15.307465 93.180 29.1412
15.418389 93.192 28.8379
15.530117 93.205 28.5321
15.642655 93.220 28.2220
15.756008 93.235 27.9059
15.870182 93.251 27.5822
15.985184 93.267 27.2499
16.101019 93.284 26.9086
16.217694 93.300 26.5580
16.335214 93.315 26.1985
16.453586 93.329 25.8312
16.572815 93.342 25.4573
16.692909 93.353 25.0786
16.813872 93.363 24.6969
16.935713 93.371 24.3147
17.058436 93.377 23.9342
17.182048 93.381 23.5577
17.306556 93.383 23.1875
17.431967 93.383 22.8257
17.558286 93.383 22.4741
17.685521 93.381 22.1340
17.813677 93.379 21.8065
17.942762 93.377 21.4922
18.072783 93.374 21.1909
18.203746 93.372 20.9022
18.335658 93.371 20.6248
18.468526 93.372 20.3568
18.602356 93.374 20.0959
18.737156 93.377 19.8393
18.872934 93.383 19.5836
19.009695 93.390 19.3256
19.147447 93.399 19.0616
19.286197 93.409 18.7889
19.425953 93.420 18.5049
19.566721 93.431 18.2079
19.708510 93.441 17.8977
19.851326 93.450 17.5748
19.995177 93.457 17.2416
20.140070 93.462 16.9013
20.286013 93.464 16.5583
20.433014 93.463 16.2179
20.581080 93.459 15.8851
20.730219 93.453 15.5650
20.880439 93.445 15.2612
21.031747 93.437 14.9761
21.184152 93.429 14.7097
21.337661 93.422 14.4601
21.492282 93.417 14.2228
21.648024 93.415 13.9919
21.804895 93.416 13.7603
21.962902 93.419 13.5205
22.122054 93.425 13.2661
22.282360 93.432 12.9928
22.443827 93.438 12.6989
22.606464 93.442 12.3856
22.770280 93.444 12.0576
22.935283 93.443 11.7214
23.101481 93.437 11.3856
23.268884 93.428 11.0588
23.437500 93.416 10.7486
23.607338 93.402 10.4601
23.778406 93.388 10.1952
23.950714 93.376 9.9517
24.124271 93.367 9.7240
24.299086 93.360 9.5039
24.475167 93.358 9.2820
24.652524 93.358 9.0496
24.831166 93.361 8.8002
25.011103 93.363 8.5311
25.192344 93.365 8.2437
25.374898 93.364 7.9431
25.558775 93.360 7.6375
25.743984 93.354 7.3358
25.930536 93.344 7.0463
26.118439 93.334 6.7744
26.307704 93.324 6.5215
26.498341 93.316 6.2848
26.690359 93.311 6.0571
26.883768 93.309 5.8293
27.078579 93.309 5.5920
27.274801 93.312 5.3378
27.472446 93.314 5.0630
27.671522 93.315 4.7694
27.872042 93.313 4.4631
28.074014 93.307 4.1537
28.277450 93.298 3.8527
28.482360 93.285 3.5700
28.688755 93.270 3.3127
28.896645 93.256 3.0830
29.106042 93.244 2.8776
29.316957 93.236 2.6886
29.529400 93.231 2.5052
29.743382 93.231 2.3158
29.958915 93.234 2.1108
30.176009 93.238 1.8843
30.394677 93.243 1.6348
30.614929 93.245 1.3652
30.836778 93.245 1.0814
31.060234 93.242 0.7913
31.285309 93.236 0.5021
31.512015 93.228 0.2195
31.740364 93.219 -0.0530
31.970368 93.208 -0.3151
32.202039 93.198 -0.5682
32.435388 93.187 -0.8159
32.670428 93.178 -1.0616
32.907171 93.168 -1.3086
33.145630 93.158 -1.5590
33.385817 93.148 -1.8135
33.627745 93.136 -2.0708
33.871425 93.122 -2.3282
34.116871 93.107 -2.5817
34.364096 93.089 -2.8263
34.613113 93.070 -3.0573
34.863934 93.050 -3.2709
35.116572 93.031 -3.4653
35.371041 93.013 -3.6418
35.627354 92.997 -3.8051
35.885525 92.985 -3.9628
36.145566 92.976 -4.1248
36.407492 92.971 -4.3010
36.671316 92.967 -4.4993
36.937051 92.964 -4.7236
37.204712 92.960 -4.9729
37.474313 92.952 -5.2408
37.745867 92.940 -5.5175
38.019389 92.925 -5.7913
38.294893 92.907 -6.0521
38.572394 92.886 -6.2936
38.851905 92.866 -6.5146
39.133442 92.847 -6.7192
39.417019 92.831 -6.9146
39.702651 92.817 -7.1094
39.990353 92.805 -7.3104
40.280140 92.794 -7.5215
40.572026 92.784 -7.7428
40.866028 92.772 -7.9719
41.162160 92.761 -8.2058
41.460438 92.749 -8.4420
41.760877 92.736 -8.6797
42.063494 92.724 -8.9191
42.368303 92.711 -9.1606
42.675322 92.697 -9.4042
42.984565 92.683 -9.6488
43.296048 92.669 -9.8932
43.609789 92.654 -10.1371
43.925804 92.639 -10.3812
44.244108 92.623 -10.6270
44.564719 92.607 -10.8751
44.887654 92.589 -11.1241
45.212928 92.570 -11.3701
45.540560 92.550 -11.6086
45.870565 92.529 -11.8369
46.202962 92.508 -12.0558
46.537768 92.488 -12.2702
46.875000 92.469 -12.4866
47.214676 92.450 -12.7093
47.556813 92.430 -12.9372
47.901429 92.408 -13.1641
48.248542 92.384 -13.3815
48.598171 92.359 -13.5837
48.950334 92.335 -13.7714
49.305048 92.314 -13.9510
49.662333 92.294 -14.1326
50.022206 92.276 -14.3243
50.384688 92.259 -14.5294
50.749796 92.241 -14.7462
51.117550 92.221 -14.9702
51.487969 92.200 -15.1965
51.861072 92.177 -15.4222
52.236879 92.154 -15.6453
52.615409 92.129 -15.8651
52.996681 92.105 -16.0812
53.380717 92.080 -16.2937
53.767536 92.054 -16.5039
54.157158 92.029 -16.7133
54.549603 92.004 -16.9222
54.944892 91.978 -17.1302
55.343045 91.951 -17.3354
55.744084 91.924 -17.5361
56.148028 91.896 -17.7320
56.554900 91.869 -17.9240
56.964720 91.842 -18.1136
57.377510 91.815 -18.3022
57.793291 91.788 -18.4901
58.212085 91.760 -18.6765
58.633914 91.733 -18.8607
59.058799 91.705 -19.0417
59.486764 91.677 -19.2191
59.917829 91.649 -19.3929
60.352019 91.622 -19.5641
60.789354 91.595 -19.7340
61.229859 91.568 -19.9043
61.673556 91.542 -20.0762
62.120468 91.516 -20.2507
62.570618 91.490 -20.4285
63.024031 91.464 -20.6088
63.480729 91.437 -20.7904
63.940736 91.409 -20.9714
64.404077 91.381 -21.1505
64.870776 91.352 -21.3277
65.340856 91.323 -21.5034
65.814343 91.293 -21.6769
66.291261 91.262 -21.8467
66.771635 91.230 -22.0112
67.255489 91.198 -22.1708
67.742850 91.166 -22.3287
68.233743 91.133 -22.4886
68.728193 91.100 -22.6517
69.226226 91.066 -22.8153
69.727867 91.031 -22.9756
70.233144 90.995 -23.1309
70.742083 90.960 -23.2831
71.254709 90.926 -23.4369
71.771050 90.892 -23.5950
72.291132 90.858 -23.7555
72.814984 90.823 -23.9122
73.342631 90.788 -24.0601
73.874102 90.755 -24.1987
74.409424 90.723 -24.3335
74.948626 90.693 -24.4709
75.491734 90.663 -24.6141
76.038779 90.632 -24.7599
76.589787 90.599 -24.9021
77.144788 90.565 -25.0352
77.703811 90.531 -25.1578
78.266885 90.496 -25.2726
78.834039 90.460 -25.3838
79.405303 90.424 -25.4944
79.980706 90.387 -25.6044
80.560280 90.348 -25.7111
81.144053 90.309 -25.8113
81.732056 90.270 -25.9052
82.324320 90.232 -25.9971
82.920876 90.194 -26.0934
83.521755 90.157 -26.1982
84.126988 90.119 -26.3096
84.736607 90.080 -26.4214
85.350643 90.040 -26.5280
85.969129 90.000 -26.6276
86.592097 89.960 -26.7212
87.219579 89.920 -26.8110
87.851608 89.881 -26.8993
88.488217 89.842 -26.9882
89.129439 89.803 -27.0792
89.775308 89.764 -27.1724
90.425856 89.724 -27.2665
91.081119 89.684 -27.3597
91.741131 89.643 -27.4484
92.405925 89.601 -27.5292
93.075536 89.559 -27.6006
93.750000 89.518 -27.6648
94.429351 89.478 -27.7252
95.113625 89.438 -27.7845
95.802858 89.398 -27.8447
96.497085 89.358 -27.9065
97.196342 89.317 -27.9673
97.900667 89.274 -28.0226
98.610096 89.230 -28.0696
99.324665 89.187 -28.1082
