* Measurement data measured by REW V5.31.3
* Source: Headset (CX31993 HIFI AUDIO), MICROPHONE (Master Volume), R, volume: 0.400
* Format: 256k Log Swept Sine, 1 sweep at -11.9 dBFS with no timing reference
* Dated: 07 7, 25 10:21:11 AM
* REW Settings:
*  C-weighting compensation: Off
*  Target level: 75.0 dB
* Note: ; 
* Measurement: Truthear PURE R
* Smoothing: 1/12 octave
* Frequency Step: 96 ppo
* Start Frequency: 0.36621094 Hz
*
* Freq(Hz) SPL(dB) Phase(degrees)
0.366211 46.148 -10.3839
0.368865 46.142 -10.4058
0.371538 46.134 -10.4387
0.374230 46.124 -10.4800
0.376942 46.112 -10.5275
0.379673 46.099 -10.5796
0.382424 46.086 -10.6353
0.385196 46.072 -10.6939
0.387987 46.058 -10.7551
0.390798 46.044 -10.8187
0.393630 46.030 -10.8844
0.396483 46.016 -10.9525
0.399356 46.002 -11.0227
0.402250 45.987 -11.0951
0.405165 45.972 -11.1698
0.408101 45.958 -11.2467
0.411058 45.943 -11.3258
0.414037 45.928 -11.4073
0.417037 45.913 -11.4910
0.420059 45.898 -11.5770
0.423103 45.883 -11.6653
0.426169 45.867 -11.7560
0.429257 45.852 -11.8491
0.432368 45.836 -11.9445
0.435501 45.820 -12.0423
0.438656 45.805 -12.1425
0.441835 45.789 -12.2451
0.445037 45.773 -12.3502
0.448262 45.756 -12.4578
0.451510 45.740 -12.5678
0.454782 45.724 -12.6803
0.458077 45.707 -12.7953
0.461397 45.691 -12.9128
0.464740 45.674 -13.0328
0.468108 45.657 -13.1554
0.471500 45.640 -13.2805
0.474917 45.623 -13.4082
0.478358 45.606 -13.5385
0.481825 45.588 -13.6713
0.485316 45.571 -13.8068
0.488833 45.553 -13.9449
0.492375 45.535 -14.0856
0.495943 45.518 -14.2289
0.499537 45.500 -14.3749
0.503157 45.481 -14.5236
0.506803 45.463 -14.6749
0.510475 45.445 -14.8289
0.514175 45.426 -14.9856
0.517900 45.408 -15.1449
0.521653 45.389 -15.3070
0.525434 45.370 -15.4719
0.529241 45.351 -15.6394
0.533076 45.332 -15.8097
0.536939 45.312 -15.9828
0.540830 45.293 -16.1586
0.544749 45.273 -16.3371
0.548696 45.253 -16.5185
0.552673 45.233 -16.7026
0.556677 45.213 -16.8896
0.560711 45.193 -17.0794
0.564774 45.173 -17.2720
0.568867 45.152 -17.4674
0.572989 45.132 -17.6657
0.577141 45.111 -17.8669
0.581324 45.090 -18.0710
0.585536 45.069 -18.2779
0.589779 45.047 -18.4878
0.594053 45.026 -18.7006
0.598358 45.005 -18.9164
0.602694 44.983 -19.1351
0.607061 44.961 -19.3569
0.611460 44.939 -19.5817
0.615891 44.917 -19.8095
0.620354 44.894 -20.0404
0.624849 44.872 -20.2745
0.629377 44.849 -20.5117
0.633938 44.826 -20.7520
0.638532 44.803 -20.9957
0.643159 44.780 -21.2425
0.647819 44.757 -21.4927
0.652514 44.733 -21.7463
0.657242 44.710 -22.0033
0.662005 44.686 -22.2638
0.666802 44.662 -22.5279
0.671634 44.637 -22.7956
0.676501 44.613 -23.0670
0.681403 44.588 -23.3422
0.686341 44.564 -23.6214
0.691314 44.538 -23.9046
0.696324 44.513 -24.1920
0.701370 44.487 -24.4837
0.706452 44.460 -24.7802
0.711571 44.432 -25.0816
0.716728 44.402 -25.3887
0.721921 44.368 -25.7021
0.727153 44.330 -26.0230
0.732422 44.285 -26.3530
0.737729 44.232 -26.6936
0.743075 44.171 -27.0468
0.748460 44.103 -27.4140
0.753883 44.027 -27.7965
0.759346 43.945 -28.1953
0.764849 43.856 -28.6111
0.770391 43.762 -29.0445
0.775974 43.662 -29.4960
0.781597 43.557 -29.9661
0.787261 43.447 -30.4552
0.792966 43.332 -30.9638
0.798712 43.213 -31.4924
0.804500 43.089 -32.0414
0.810329 42.961 -32.6114
0.816201 42.828 -33.2029
0.822116 42.692 -33.8164
0.828073 42.552 -34.4527
0.834074 42.408 -35.1122
0.840118 42.261 -35.7958
0.846206 42.112 -36.5042
0.852338 41.959 -37.2381
0.858514 41.804 -37.9983
0.864735 41.646 -38.7859
0.871001 41.487 -39.6018
0.877313 41.325 -40.4470
0.883670 41.163 -41.3228
0.890074 40.999 -42.2304
0.896524 40.835 -43.1711
0.903020 40.671 -44.1464
0.909564 40.506 -45.1581
0.916155 40.343 -46.2078
0.922794 40.180 -47.2976
0.929481 40.018 -48.4296
0.936216 39.858 -49.6062
0.943000 39.701 -50.8299
0.949834 39.546 -52.1038
0.956717 39.395 -53.4309
0.963649 39.248 -54.8147
0.970632 39.105 -56.2592
0.977666 38.966 -57.7686
0.984750 38.834 -59.3475
0.991886 38.708 -61.0013
0.999074 38.589 -62.7357
1.006314 38.477 -64.5568
1.013606 38.374 -66.4717
1.020951 38.281 -68.4878
1.028349 38.197 -70.6133
1.035801 38.123 -72.8570
1.043307 38.062 -75.2284
1.050867 38.013 -77.7374
1.058482 37.977 -80.3944
1.066152 37.956 -83.2096
1.073878 37.949 -86.1932
1.081660 37.959 -89.3540
1.089498 37.986 -92.6980
1.097393 38.029 -96.2271
1.105345 38.091 -99.9362
1.113355 38.170 -103.8111
1.121423 38.267 -107.8279
1.129549 38.381 -111.9533
1.137734 38.513 -116.1471
1.145979 38.661 -120.3647
1.154283 38.827 -124.5607
1.162647 39.008 -128.6919
1.171072 39.206 -132.7198
1.179558 39.419 -136.6131
1.188106 39.646 -140.3477
1.196715 39.888 -143.9079
1.205387 40.143 -147.2847
1.214122 40.412 -150.4756
1.222920 40.693 -153.4829
1.231782 40.986 -156.3129
1.240708 41.290 -158.9742
1.249699 41.605 -161.4772
1.258754 41.929 -163.8332
1.267876 42.262 -166.0537
1.277063 42.603 -168.1503
1.286318 42.951 -170.1340
1.295639 43.306 -172.0154
1.305027 43.665 -173.8045
1.314484 44.029 -175.5104
1.324009 44.396 -177.1416
1.333604 44.766 -178.7059
1.343268 45.136 179.7896
1.353002 45.507 178.3386
1.362806 45.876 176.9351
1.372681 46.242 175.5739
1.382628 46.606 174.2504
1.392647 46.964 172.9602
1.402739 47.316 171.7000
1.412904 47.662 170.4668
1.423142 47.999 169.2586
1.433455 48.329 168.0744
1.443843 48.649 166.9146
1.454305 48.962 165.7811
1.464844 49.269 164.6772
1.475459 49.570 163.6070
1.486150 49.868 162.5739
1.496920 50.163 161.5799
1.507767 50.458 160.6250
1.518693 50.752 159.7076
1.529698 51.046 158.8250
1.540783 51.340 157.9741
1.551948 51.633 157.1513
1.563194 51.927 156.3533
1.574521 52.220 155.5766
1.585931 52.514 154.8179
1.597423 52.807 154.0742
1.608999 53.100 153.3425
1.620658 53.393 152.6203
1.632402 53.685 151.9049
1.644232 53.976 151.1940
1.656146 54.267 150.4855
1.668147 54.557 149.7774
1.680235 54.846 149.0677
1.692411 55.135 148.3547
1.704675 55.422 147.6368
1.717028 55.708 146.9125
1.729470 55.993 146.1805
1.742003 56.276 145.4398
1.754626 56.558 144.6892
1.767341 56.839 143.9284
1.780147 57.117 143.1571
1.793047 57.393 142.3760
1.806040 57.668 141.5865
1.819128 57.939 140.7911
1.832310 58.209 139.9936
1.845587 58.475 139.1981
1.858961 58.739 138.4084
1.872432 59.000 137.6276
1.886001 59.257 136.8570
1.899667 59.512 136.0970
1.913433 59.764 135.3471
1.927299 60.014 134.6065
1.941265 60.261 133.8738
1.955332 60.505 133.1476
1.969501 60.747 132.4264
1.983773 60.987 131.7086
1.998148 61.226 130.9927
2.012627 61.462 130.2771
2.027212 61.697 129.5605
2.041902 61.931 128.8412
2.056698 62.163 128.1182
2.071602 62.395 127.3898
2.086614 62.626 126.6549
2.101734 62.857 125.9124
2.116964 63.087 125.1613
2.132304 63.317 124.4010
2.147756 63.548 123.6313
2.163320 63.778 122.8524
2.178996 64.009 122.0655
2.194786 64.240 121.2726
2.210690 64.469 120.4764
2.226710 64.699 119.6798
2.242845 64.926 118.8849
2.259098 65.153 118.0932
2.275468 65.378 117.3054
2.291957 65.602 116.5214
2.308566 65.825 115.7408
2.325295 66.046 114.9628
2.342145 66.266 114.1865
2.359117 66.485 113.4109
2.376212 66.703 112.6347
2.393431 66.919 111.8570
2.410775 67.135 111.0764
2.428244 67.350 110.2919
2.445840 67.565 109.5022
2.463564 67.779 108.7063
2.481416 67.992 107.9032
2.499397 68.205 107.0922
2.517509 68.418 106.2730
2.535752 68.631 105.4457
2.554127 68.843 104.6110
2.572635 69.054 103.7705
2.591277 69.265 102.9258
2.610055 69.474 102.0788
2.628968 69.683 101.2308
2.648019 69.890 100.3826
2.667208 70.097 99.5347
2.686535 70.302 98.6870
2.706003 70.506 97.8394
2.725612 70.710 96.9915
2.745363 70.912 96.1425
2.765257 71.114 95.2918
2.785295 71.314 94.4387
2.805478 71.514 93.5822
2.825808 71.714 92.7215
2.846285 71.912 91.8558
2.866910 72.110 90.9845
2.887685 72.308 90.1069
2.908611 72.505 89.2229
2.929688 72.701 88.3329
2.950917 72.896 87.4374
2.972301 73.091 86.5375
2.993839 73.284 85.6342
3.015534 73.476 84.7285
3.037386 73.668 83.8209
3.059396 73.858 82.9120
3.081565 74.047 82.0019
3.103896 74.235 81.0908
3.126388 74.422 80.1785
3.149043 74.609 79.2648
3.171862 74.794 78.3492
3.194847 74.979 77.4312
3.217998 75.163 76.5103
3.241317 75.346 75.5857
3.264805 75.528 74.6570
3.288463 75.709 73.7238
3.312293 75.890 72.7858
3.336295 76.069 71.8432
3.360471 76.248 70.8965
3.384822 76.425 69.9464
3.409350 76.601 68.9935
3.434056 76.776 68.0387
3.458940 76.950 67.0825
3.484005 77.122 66.1253
3.509252 77.294 65.1675
3.534681 77.465 64.2093
3.560295 77.635 63.2505
3.586094 77.803 62.2907
3.612081 77.971 61.3297
3.638255 78.138 60.3666
3.664620 78.304 59.4008
3.691175 78.469 58.4317
3.717923 78.632 57.4592
3.744864 78.795 56.4834
3.772001 78.956 55.5048
3.799335 79.116 54.5244
3.826866 79.275 53.5428
3.854597 79.432 52.5609
3.882529 79.589 51.5794
3.910664 79.744 50.5988
3.939002 79.899 49.6193
3.967546 80.052 48.6407
3.996296 80.204 47.6626
4.025255 80.355 46.6842
4.054423 80.506 45.7048
4.083804 80.654 44.7237
4.113396 80.802 43.7408
4.143204 80.948 42.7563
4.173227 81.093 41.7710
4.203468 81.237 40.7858
4.233928 81.380 39.8016
4.264609 81.522 38.8192
4.295512 81.662 37.8392
4.326639 81.802 36.8618
4.357992 81.940 35.8870
4.389572 82.078 34.9141
4.421380 82.214 33.9423
4.453419 82.349 32.9709
4.485691 82.483 31.9997
4.518196 82.616 31.0287
4.550936 82.748 30.0586
4.583914 82.878 29.0901
4.617131 83.008 28.1240
4.650589 83.136 27.1611
4.684289 83.264 26.2020
4.718233 83.391 25.2467
4.752424 83.516 24.2949
4.786862 83.641 23.3461
4.821549 83.765 22.3995
4.856488 83.888 21.4548
4.891680 84.009 20.5121
4.927127 84.130 19.5717
4.962831 84.250 18.6339
4.998794 84.369 17.6996
5.035017 84.488 16.7693
5.071503 84.605 15.8431
5.108253 84.722 14.9212
5.145270 84.838 14.0031
5.182555 84.954 13.0884
5.220110 85.068 12.1766
5.257937 85.182 11.2676
5.296038 85.295 10.3615
5.334415 85.408 9.4585
5.373071 85.520 8.5588
5.412006 85.631 7.6630
5.451224 85.742 6.7708
5.490725 85.853 5.8822
5.530514 85.962 4.9970
5.570590 86.072 4.1148
5.610957 86.181 3.2354
5.651616 86.289 2.3585
5.692570 86.397 1.4841
5.733821 86.504 0.6125
5.775370 86.611 -0.2565
5.817221 86.718 -1.1229
5.859375 86.824 -1.9868
5.901834 86.930 -2.8486
5.944602 87.035 -3.7084
5.987679 87.140 -4.5665
6.031068 87.244 -5.4229
6.074771 87.349 -6.2777
6.118792 87.452 -7.1310
6.163131 87.556 -7.9829
6.207792 87.659 -8.8335
6.252776 87.761 -9.6830
6.298086 87.863 -10.5317
6.343725 87.965 -11.3798
6.389694 88.066 -12.2272
6.435996 88.166 -13.0739
6.482634 88.266 -13.9198
6.529610 88.366 -14.7651
6.576926 88.465 -15.6099
6.624585 88.563 -16.4542
6.672590 88.661 -17.2985
6.720942 88.758 -18.1425
6.769645 88.855 -18.9863
6.818700 88.951 -19.8297
6.868111 89.046 -20.6724
6.917881 89.141 -21.5144
6.968010 89.234 -22.3558
7.018504 89.327 -23.1968
7.069362 89.420 -24.0374
7.120590 89.511 -24.8773
7.172189 89.602 -25.7164
7.224161 89.692 -26.5543
7.276511 89.781 -27.3909
7.329239 89.869 -28.2261
7.382350 89.956 -29.0599
7.435845 90.043 -29.8923
7.489729 90.128 -30.7233
7.544002 90.213 -31.5525
7.598669 90.297 -32.3796
7.653732 90.380 -33.2043
7.709194 90.463 -34.0267
7.765058 90.544 -34.8467
7.821327 90.625 -35.6643
7.878004 90.705 -36.4794
7.935091 90.784 -37.2917
7.992592 90.862 -38.1011
8.050510 90.940 -38.9075
8.108847 91.017 -39.7108
8.167607 91.093 -40.5111
8.226793 91.168 -41.3083
8.286408 91.243 -42.1025
8.346454 91.317 -42.8936
8.406936 91.391 -43.6813
8.467856 91.464 -44.4659
8.529218 91.536 -45.2474
8.591024 91.608 -46.0258
8.653278 91.679 -46.8012
8.715983 91.749 -47.5736
8.779143 91.819 -48.3430
8.842760 91.889 -49.1094
8.906839 91.958 -49.8730
8.971381 92.027 -50.6339
9.036392 92.095 -51.3921
9.101873 92.162 -52.1476
9.167829 92.229 -52.9005
9.234263 92.296 -53.6508
9.301178 92.362 -54.3987
9.368578 92.427 -55.1440
9.436467 92.492 -55.8870
9.504847 92.557 -56.6274
9.573723 92.621 -57.3654
9.643099 92.684 -58.1011
9.712976 92.747 -58.8342
9.783361 92.810 -59.5651
9.854255 92.872 -60.2933
9.925663 92.933 -61.0192
9.997588 92.994 -61.7426
10.070035 93.055 -62.4634
10.143007 93.115 -63.1818
10.216507 93.175 -63.8976
10.290540 93.234 -64.6109
10.365109 93.293 -65.3217
10.440219 93.351 -66.0299
10.515873 93.409 -66.7357
10.592076 93.467 -67.4391
10.668830 93.524 -68.1401
10.746141 93.581 -68.8387
10.824012 93.637 -69.5353
10.902447 93.693 -70.2297
10.981451 93.749 -70.9221
11.061027 93.805 -71.6128
11.141180 93.860 -72.3017
11.221913 93.915 -72.9891
11.303232 93.970 -73.6752
11.385140 94.024 -74.3600
11.467641 94.078 -75.0439
11.550741 94.132 -75.7269
11.634442 94.185 -76.4091
11.718750 94.238 -77.0908
11.803669 94.291 -77.7721
11.889203 94.343 -78.4529
11.975357 94.395 -79.1335
12.062136 94.446 -79.8140
12.149543 94.497 -80.4941
12.237583 94.547 -81.1741
12.326262 94.596 -81.8538
12.415583 94.645 -82.5330
12.505552 94.694 -83.2117
12.596172 94.741 -83.8898
12.687449 94.788 -84.5670
12.779387 94.834 -85.2432
12.871992 94.880 -85.9180
12.965268 94.924 -86.5911
13.059220 94.968 -87.2625
13.153852 95.011 -87.9316
13.249170 95.053 -88.5984
13.345179 95.095 -89.2625
13.441884 95.136 -89.9236
13.539289 95.176 -90.5815
13.637401 95.215 -91.2361
13.736223 95.254 -91.8871
13.835761 95.292 -92.5345
13.936021 95.329 -93.1781
14.037007 95.366 -93.8179
14.138725 95.403 -94.4539
14.241180 95.438 -95.0861
14.344377 95.474 -95.7146
14.448323 95.509 -96.3395
14.553021 95.544 -96.9609
14.658478 95.578 -97.5790
14.764700 95.612 -98.1938
14.871691 95.646 -98.8055
14.979457 95.679 -99.4144
15.088005 95.712 -100.0204
15.197339 95.745 -100.6237
15.307465 95.777 -101.2244
15.418389 95.810 -101.8226
15.530117 95.841 -102.4183
15.642655 95.873 -103.0117
15.756008 95.904 -103.6028
15.870182 95.934 -104.1917
15.985184 95.965 -104.7784
16.101019 95.995 -105.3632
16.217694 96.024 -105.9459
16.335214 96.054 -106.5270
16.453586 96.083 -107.1064
16.572815 96.111 -107.6844
16.692909 96.140 -108.2612
16.813872 96.168 -108.8369
16.935713 96.195 -109.4116
17.058436 96.222 -109.9854
17.182048 96.249 -110.5583
17.306556 96.275 -111.1305
17.431967 96.301 -111.7017
17.558286 96.326 -112.2720
17.685521 96.351 -112.8409
17.813677 96.374 -113.4083
17.942762 96.397 -113.9739
18.072783 96.420 -114.5375
18.203746 96.442 -115.0985
18.335658 96.463 -115.6567
18.468526 96.484 -116.2120
18.602356 96.504 -116.7643
18.737156 96.524 -117.3132
18.872934 96.543 -117.8590
19.009695 96.562 -118.4017
19.147447 96.581 -118.9417
19.286197 96.600 -119.4790
19.425953 96.618 -120.0140
19.566721 96.636 -120.5471
19.708510 96.654 -121.0785
19.851326 96.672 -121.6084
19.995177 96.690 -122.1370
20.140070 96.707 -122.6642
20.286013 96.723 -123.1901
20.433014 96.740 -123.7144
20.581080 96.755 -124.2367
20.730219 96.771 -124.7570
20.880439 96.786 -125.2747
21.031747 96.801 -125.7897
21.184152 96.815 -126.3018
21.337661 96.829 -126.8109
21.492282 96.843 -127.3170
21.648024 96.857 -127.8203
21.804895 96.870 -128.3212
21.962902 96.884 -128.8199
22.122054 96.897 -129.3171
22.282360 96.911 -129.8129
22.443827 96.924 -130.3079
22.606464 96.937 -130.8021
22.770280 96.949 -131.2955
22.935283 96.961 -131.7880
23.101481 96.973 -132.2791
23.268884 96.984 -132.7681
23.437500 96.994 -133.2545
23.607338 97.004 -133.7375
23.778406 97.013 -134.2165
23.950714 97.022 -134.6910
24.124271 97.031 -135.1611
24.299086 97.039 -135.6268
24.475167 97.048 -136.0888
24.652524 97.056 -136.5480
24.831166 97.065 -137.0056
25.011103 97.073 -137.4628
25.192344 97.082 -137.9207
25.374898 97.090 -138.3799
25.558775 97.098 -138.8409
25.743984 97.105 -139.3035
25.930536 97.111 -139.7665
26.118439 97.116 -140.2286
26.307704 97.119 -140.6879
26.498341 97.121 -141.1423
26.690359 97.123 -141.5902
26.883768 97.123 -142.0302
27.078579 97.123 -142.4616
27.274801 97.123 -142.8849
27.472446 97.123 -143.3011
27.671522 97.124 -143.7123
27.872042 97.126 -144.1207
28.074014 97.128 -144.5288
28.277450 97.131 -144.9386
28.482360 97.134 -145.3514
28.688755 97.136 -145.7676
28.896645 97.138 -146.1866
29.106042 97.140 -146.6073
29.316957 97.140 -147.0278
29.529400 97.140 -147.4464
29.743382 97.139 -147.8615
29.958915 97.137 -148.2724
30.176009 97.136 -148.6789
30.394677 97.134 -149.0817
30.614929 97.132 -149.4817
30.836778 97.131 -149.8801
31.060234 97.130 -150.2779
31.285309 97.128 -150.6755
31.512015 97.127 -151.0728
31.740364 97.125 -151.4691
31.970368 97.122 -151.8637
32.202039 97.119 -152.2556
32.435388 97.116 -152.6442
32.670428 97.113 -153.0291
32.907171 97.109 -153.4105
33.145630 97.105 -153.7886
33.385817 97.101 -154.1639
33.627745 97.097 -154.5367
33.871425 97.093 -154.9071
34.116871 97.088 -155.2750
34.364096 97.083 -155.6401
34.613113 97.078 -156.0026
34.863934 97.073 -156.3622
35.116572 97.068 -156.7196
35.371041 97.062 -157.0750
35.627354 97.056 -157.4287
35.885525 97.050 -157.7811
36.145566 97.043 -158.1319
36.407492 97.036 -158.4807
36.671316 97.029 -158.8270
36.937051 97.021 -159.1703
37.204712 97.012 -159.5104
37.474313 97.004 -159.8475
37.745867 96.995 -160.1819
38.019389 96.987 -160.5143
38.294893 96.978 -160.8452
38.572394 96.969 -161.1749
38.851905 96.960 -161.5035
39.133442 96.951 -161.8307
39.417019 96.941 -162.1563
39.702651 96.932 -162.4802
39.990353 96.922 -162.8020
40.280140 96.911 -163.1217
40.572026 96.901 -163.4391
40.866028 96.890 -163.7543
41.162160 96.880 -164.0669
41.460438 96.869 -164.3770
41.760877 96.858 -164.6844
42.063494 96.847 -164.9898
42.368303 96.836 -165.2933
42.675322 96.825 -165.5952
42.984565 96.814 -165.8957
43.296048 96.802 -166.1948
43.609789 96.791 -166.4921
43.925804 96.779 -166.7874
44.244108 96.766 -167.0803
44.564719 96.754 -167.3704
44.887654 96.741 -167.6578
45.212928 96.728 -167.9426
45.540560 96.715 -168.2250
45.870565 96.702 -168.5050
46.202962 96.689 -168.7828
46.537768 96.675 -169.0587
46.875000 96.662 -169.3326
47.214676 96.648 -169.6046
47.556813 96.635 -169.8745
47.901429 96.621 -170.1424
48.248542 96.607 -170.4082
48.598171 96.592 -170.6717
48.950334 96.578 -170.9327
49.305048 96.564 -171.1912
49.662333 96.549 -171.4471
50.022206 96.535 -171.7010
50.384688 96.520 -171.9534
50.749796 96.505 -172.2053
51.117550 96.491 -172.4571
51.487969 96.475 -172.7084
51.861072 96.459 -172.9582
52.236879 96.443 -173.2049
52.615409 96.426 -173.4471
52.996681 96.409 -173.6844
53.380717 96.392 -173.9173
53.767536 96.375 -174.1472
54.157158 96.359 -174.3757
54.549603 96.342 -174.6038
54.944892 96.326 -174.8317
55.343045 96.309 -175.0591
55.744084 96.293 -175.2858
56.148028 96.276 -175.5112
56.554900 96.259 -175.7352
56.964720 96.241 -175.9578
57.377510 96.224 -176.1787
57.793291 96.206 -176.3973
58.212085 96.188 -176.6128
58.633914 96.170 -176.8246
59.058799 96.152 -177.0330
59.486764 96.134 -177.2386
59.917829 96.116 -177.4426
60.352019 96.098 -177.6456
60.789354 96.080 -177.8477
61.229859 96.062 -178.0490
61.673556 96.044 -178.2499
62.120468 96.026 -178.4509
62.570618 96.008 -178.6519
63.024031 95.990 -178.8516
63.480729 95.971 -179.0477
63.940736 95.952 -179.2383
64.404077 95.933 -179.4227
64.870776 95.914 -179.6018
65.340856 95.896 -179.7767
65.814343 95.879 -179.9484
66.291261 95.861 179.8835
66.771635 95.843 179.7195
67.255489 95.825 179.5601
67.742850 95.807 179.4066
68.233743 95.789 179.2592
68.728193 95.772 179.1166
69.226226 95.755 178.9739
69.727867 95.739 178.8246
70.233144 95.723 178.6644
70.742083 95.705 178.4937
71.254709 95.686 178.3175
71.771050 95.664 178.1423
72.291132 95.642 177.9716
72.814984 95.619 177.8060
73.342631 95.595 177.6442
73.874102 95.573 177.4846
74.409424 95.551 177.3266
74.948626 95.529 177.1698
75.491734 95.508 177.0142
76.038779 95.487 176.8600
76.589787 95.467 176.7076
77.144788 95.448 176.5576
77.703811 95.428 176.4105
78.266885 95.409 176.2671
78.834039 95.389 176.1279
79.405303 95.369 175.9933
79.980706 95.350 175.8630
80.560280 95.330 175.7360
81.144053 95.310 175.6115
81.732056 95.290 175.4884
82.324320 95.270 175.3664
82.920876 95.250 175.2448
83.521755 95.230 175.1229
84.126988 95.210 175.0006
84.736607 95.190 174.8784
85.350643 95.169 174.7573
85.969129 95.149 174.6382
86.592097 95.129 174.5219
87.219579 95.109 174.4085
87.851608 95.088 174.2982
88.488217 95.068 174.1904
89.129439 95.048 174.0842
89.775308 95.028 173.9786
90.425856 95.008 173.8734
