* Measurement data measured by REW V5.31.3
* Source: Headset (CX31993 HIFI AUDIO), MICROPHONE (Master Volume), R, volume: 0.400
* Format: 256k Log Swept Sine, 1 sweep at -11.9 dBFS with no timing reference
* Dated: 07 7, 25 10:20:43 AM
* REW Settings:
*  C-weighting compensation: Off
*  Target level: 75.0 dB
* Note: ; 
* Measurement: Truthear PURE L
* Smoothing: 1/12 octave
* Frequency Step: 96 ppo
* Start Frequency: 0.36621094 Hz
*
* Freq(Hz) SPL(dB) Phase(degrees)
0.366211 50.800 -39.8482
0.368865 50.797 -39.9027
0.371538 50.794 -39.9844
0.374230 50.789 -40.0868
0.376942 50.785 -40.2046
0.379673 50.779 -40.3337
0.382424 50.774 -40.4716
0.385196 50.768 -40.6167
0.387987 50.763 -40.7680
0.390798 50.757 -40.9251
0.393630 50.751 -41.0877
0.396483 50.745 -41.2557
0.399356 50.740 -41.4292
0.402250 50.734 -41.6080
0.405165 50.728 -41.7923
0.408101 50.722 -41.9821
0.411058 50.716 -42.1775
0.414037 50.709 -42.3785
0.417037 50.703 -42.5851
0.420059 50.697 -42.7974
0.423103 50.691 -43.0155
0.426169 50.685 -43.2395
0.429257 50.678 -43.4693
0.432368 50.672 -43.7050
0.435501 50.665 -43.9467
0.438656 50.659 -44.1944
0.441835 50.652 -44.4482
0.445037 50.646 -44.7081
0.448262 50.639 -44.9742
0.451510 50.633 -45.2465
0.454782 50.626 -45.5250
0.458077 50.619 -45.8099
0.461397 50.612 -46.1010
0.464740 50.606 -46.3985
0.468108 50.599 -46.7025
0.471500 50.592 -47.0129
0.474917 50.585 -47.3297
0.478358 50.578 -47.6531
0.481825 50.570 -47.9829
0.485316 50.563 -48.3194
0.488833 50.556 -48.6624
0.492375 50.549 -49.0121
0.495943 50.542 -49.3683
0.499537 50.534 -49.7312
0.503157 50.527 -50.1008
0.506803 50.519 -50.4770
0.510475 50.512 -50.8600
0.514175 50.504 -51.2496
0.517900 50.497 -51.6459
0.521653 50.489 -52.0489
0.525434 50.481 -52.4586
0.529241 50.473 -52.8750
0.533076 50.465 -53.2981
0.536939 50.458 -53.7279
0.540830 50.450 -54.1643
0.544749 50.442 -54.6074
0.548696 50.433 -55.0572
0.552673 50.425 -55.5136
0.556677 50.417 -55.9766
0.560711 50.409 -56.4461
0.564774 50.400 -56.9223
0.568867 50.392 -57.4049
0.572989 50.384 -57.8941
0.577141 50.375 -58.3898
0.581324 50.367 -58.8919
0.585536 50.358 -59.4003
0.589779 50.349 -59.9152
0.594053 50.340 -60.4364
0.598358 50.332 -60.9639
0.602694 50.323 -61.4977
0.607061 50.314 -62.0377
0.611460 50.305 -62.5839
0.615891 50.296 -63.1362
0.620354 50.287 -63.6946
0.624849 50.277 -64.2592
0.629377 50.268 -64.8298
0.633938 50.259 -65.4064
0.638532 50.249 -65.9890
0.643159 50.240 -66.5775
0.647819 50.230 -67.1721
0.652514 50.221 -67.7725
0.657242 50.211 -68.3789
0.662005 50.201 -68.9912
0.666802 50.191 -69.6094
0.671634 50.181 -70.2336
0.676501 50.172 -70.8637
0.681403 50.161 -71.4998
0.686341 50.151 -72.1419
0.691314 50.141 -72.7902
0.696324 50.131 -73.4447
0.701370 50.121 -74.1055
0.706452 50.111 -74.7729
0.711571 50.101 -75.4472
0.716728 50.092 -76.1289
0.721921 50.084 -76.8188
0.727153 50.077 -77.5179
0.732422 50.071 -78.2274
0.737729 50.067 -78.9491
0.743075 50.065 -79.6842
0.748460 50.064 -80.4341
0.753883 50.065 -81.1995
0.759346 50.065 -81.9810
0.764849 50.066 -82.7789
0.770391 50.068 -83.5932
0.775974 50.069 -84.4240
0.781597 50.071 -85.2711
0.787261 50.073 -86.1344
0.792966 50.074 -87.0138
0.798712 50.077 -87.9089
0.804500 50.079 -88.8196
0.810329 50.082 -89.7456
0.816201 50.084 -90.6866
0.822116 50.088 -91.6423
0.828073 50.091 -92.6124
0.834074 50.095 -93.5964
0.840118 50.099 -94.5941
0.846206 50.104 -95.6050
0.852338 50.109 -96.6288
0.858514 50.115 -97.6650
0.864735 50.121 -98.7132
0.871001 50.128 -99.7730
0.877313 50.135 -100.8441
0.883670 50.144 -101.9258
0.890074 50.153 -103.0178
0.896524 50.162 -104.1197
0.903020 50.173 -105.2310
0.909564 50.184 -106.3514
0.916155 50.197 -107.4804
0.922794 50.210 -108.6176
0.929481 50.225 -109.7627
0.936216 50.240 -110.9153
0.943000 50.257 -112.0751
0.949834 50.275 -113.2419
0.956717 50.295 -114.4152
0.963649 50.316 -115.5949
0.970632 50.338 -116.7809
0.977666 50.362 -117.9728
0.984750 50.387 -119.1707
0.991886 50.415 -120.3744
0.999074 50.444 -121.5838
1.006314 50.475 -122.7990
1.013606 50.507 -124.0201
1.020951 50.542 -125.2471
1.028349 50.579 -126.4801
1.035801 50.619 -127.7194
1.043307 50.660 -128.9653
1.050867 50.705 -130.2179
1.058482 50.751 -131.4778
1.066152 50.801 -132.7452
1.073878 50.853 -134.0206
1.081660 50.908 -135.3046
1.089498 50.966 -136.5974
1.097393 51.028 -137.8995
1.105345 51.092 -139.2109
1.113355 51.161 -140.5315
1.121423 51.232 -141.8608
1.129549 51.307 -143.1980
1.137734 51.386 -144.5423
1.145979 51.468 -145.8928
1.154283 51.554 -147.2484
1.162647 51.643 -148.6081
1.171072 51.736 -149.9708
1.179558 51.832 -151.3356
1.188106 51.932 -152.7015
1.196715 52.034 -154.0674
1.205387 52.140 -155.4325
1.214122 52.249 -156.7958
1.222920 52.362 -158.1564
1.231782 52.477 -159.5136
1.240708 52.595 -160.8666
1.249699 52.716 -162.2146
1.258754 52.839 -163.5570
1.267876 52.966 -164.8932
1.277063 53.094 -166.2226
1.286318 53.225 -167.5447
1.295639 53.359 -168.8591
1.305027 53.495 -170.1654
1.314484 53.632 -171.4632
1.324009 53.772 -172.7523
1.333604 53.913 -174.0324
1.343268 54.056 -175.3035
1.353002 54.201 -176.5652
1.362806 54.347 -177.8177
1.372681 54.494 -179.0608
1.382628 54.642 179.7055
1.392647 54.790 178.4811
1.402739 54.940 177.2661
1.412904 55.090 176.0604
1.423142 55.240 174.8642
1.433455 55.391 173.6777
1.443843 55.542 172.5015
1.454305 55.694 171.3362
1.464844 55.846 170.1833
1.475459 56.000 169.0441
1.486150 56.156 167.9200
1.496920 56.314 166.8119
1.507767 56.473 165.7204
1.518693 56.636 164.6455
1.529698 56.800 163.5868
1.540783 56.967 162.5438
1.551948 57.136 161.5157
1.563194 57.308 160.5015
1.574521 57.481 159.5003
1.585931 57.657 158.5110
1.597423 57.835 157.5326
1.608999 58.014 156.5640
1.620658 58.195 155.6041
1.632402 58.378 154.6519
1.644232 58.562 153.7061
1.656146 58.748 152.7659
1.668147 58.934 151.8300
1.680235 59.122 150.8975
1.692411 59.311 149.9674
1.704675 59.500 149.0387
1.717028 59.690 148.1103
1.729470 59.881 147.1815
1.742003 60.072 146.2514
1.754626 60.262 145.3192
1.767341 60.453 144.3844
1.780147 60.644 143.4467
1.793047 60.834 142.5062
1.806040 61.024 141.5634
1.819128 61.213 140.6195
1.832310 61.402 139.6765
1.845587 61.592 138.7368
1.858961 61.781 137.8027
1.872432 61.970 136.8758
1.886001 62.160 135.9573
1.899667 62.350 135.0478
1.913433 62.541 134.1470
1.927299 62.732 133.2548
1.941265 62.923 132.3704
1.955332 63.115 131.4933
1.969501 63.307 130.6224
1.983773 63.499 129.7571
1.998148 63.692 128.8963
2.012627 63.885 128.0391
2.027212 64.079 127.1846
2.041902 64.272 126.3318
2.056698 64.466 125.4798
2.071602 64.660 124.6277
2.086614 64.855 123.7744
2.101734 65.049 122.9193
2.116964 65.244 122.0615
2.132304 65.439 121.2006
2.147756 65.634 120.3362
2.163320 65.829 119.4687
2.178996 66.025 118.5986
2.194786 66.220 117.7274
2.210690 66.415 116.8570
2.226710 66.610 115.9893
2.242845 66.805 115.1259
2.259098 67.000 114.2677
2.275468 67.195 113.4150
2.291957 67.390 112.5679
2.308566 67.585 111.7258
2.325295 67.780 110.8879
2.342145 67.975 110.0535
2.359117 68.169 109.2216
2.376212 68.364 108.3911
2.393431 68.558 107.5610
2.410775 68.753 106.7303
2.428244 68.947 105.8979
2.445840 69.142 105.0629
2.463564 69.336 104.2241
2.481416 69.531 103.3807
2.499397 69.725 102.5322
2.517509 69.920 101.6783
2.535752 70.114 100.8190
2.554127 70.308 99.9552
2.572635 70.503 99.0883
2.591277 70.697 98.2198
2.610055 70.890 97.3512
2.628968 71.084 96.4838
2.648019 71.277 95.6180
2.667208 71.470 94.7540
2.686535 71.662 93.8917
2.706003 71.855 93.0306
2.725612 72.047 92.1701
2.745363 72.238 91.3093
2.765257 72.429 90.4475
2.785295 72.620 89.5837
2.805478 72.811 88.7171
2.825808 73.002 87.8466
2.846285 73.192 86.9714
2.866910 73.382 86.0909
2.887685 73.571 85.2047
2.908611 73.761 84.3125
2.929688 73.949 83.4150
2.950917 74.138 82.5131
2.972301 74.326 81.6077
2.993839 74.513 80.7000
3.015534 74.700 79.7909
3.037386 74.886 78.8808
3.059396 75.072 77.9701
3.081565 75.257 77.0588
3.103896 75.442 76.1467
3.126388 75.625 75.2335
3.149043 75.809 74.3186
3.171862 75.992 73.4016
3.194847 76.174 72.4817
3.217998 76.355 71.5583
3.241317 76.536 70.6307
3.264805 76.717 69.6983
3.288463 76.896 68.7609
3.312293 77.075 67.8185
3.336295 77.253 66.8714
3.360471 77.431 65.9203
3.384822 77.607 64.9658
3.409350 77.783 64.0089
3.434056 77.958 63.0500
3.458940 78.131 62.0896
3.484005 78.304 61.1281
3.509252 78.476 60.1657
3.534681 78.648 59.2022
3.560295 78.818 58.2374
3.586094 78.987 57.2709
3.612081 79.156 56.3022
3.638255 79.324 55.3304
3.664620 79.490 54.3551
3.691175 79.656 53.3756
3.717923 79.820 52.3920
3.744864 79.984 51.4044
3.772001 80.146 50.4138
3.799335 80.307 49.4208
3.826866 80.467 48.4265
3.854597 80.626 47.4315
3.882529 80.784 46.4366
3.910664 80.940 45.4422
3.939002 81.096 44.4485
3.967546 81.250 43.4551
3.996296 81.403 42.4617
4.025255 81.556 41.4673
4.054423 81.706 40.4711
4.083804 81.856 39.4724
4.113396 82.004 38.4710
4.143204 82.151 37.4677
4.173227 82.297 36.4630
4.203468 82.441 35.4582
4.233928 82.584 34.4543
4.264609 82.726 33.4522
4.295512 82.867 32.4527
4.326639 83.006 31.4560
4.357992 83.144 30.4619
4.389572 83.281 29.4698
4.421380 83.417 28.4786
4.453419 83.552 27.4877
4.485691 83.685 26.4966
4.518196 83.816 25.5057
4.550936 83.947 24.5156
4.583914 84.076 23.5273
4.617131 84.203 22.5420
4.650589 84.330 21.5605
4.684289 84.456 20.5836
4.718233 84.580 19.6115
4.752424 84.704 18.6438
4.786862 84.826 17.6798
4.821549 84.947 16.7188
4.856488 85.067 15.7602
4.891680 85.185 14.8041
4.927127 85.303 13.8510
4.962831 85.420 12.9015
4.998794 85.535 11.9565
5.035017 85.650 11.0167
5.071503 85.764 10.0824
5.108253 85.877 9.1538
5.145270 85.989 8.2305
5.182555 86.100 7.3120
5.220110 86.211 6.3976
5.257937 86.320 5.4873
5.296038 86.429 4.5809
5.334415 86.538 3.6788
5.373071 86.645 2.7814
5.412006 86.752 1.8887
5.451224 86.859 1.0011
5.490725 86.965 0.1185
5.530514 87.070 -0.7595
5.570590 87.176 -1.6332
5.610957 87.280 -2.5029
5.651616 87.384 -3.3691
5.692570 87.488 -4.2319
5.733821 87.592 -5.0915
5.775370 87.695 -5.9479
5.817221 87.798 -6.8011
5.859375 87.900 -7.6517
5.901834 88.002 -8.4996
5.944602 88.104 -9.3452
5.987679 88.206 -10.1888
6.031068 88.307 -11.0308
6.074771 88.408 -11.8712
6.118792 88.509 -12.7104
6.163131 88.610 -13.5488
6.207792 88.710 -14.3866
6.252776 88.809 -15.2241
6.298086 88.908 -16.0616
6.343725 89.007 -16.8990
6.389694 89.105 -17.7367
6.435996 89.203 -18.5745
6.482634 89.300 -19.4125
6.529610 89.397 -20.2507
6.576926 89.493 -21.0896
6.624585 89.588 -21.9293
6.672590 89.682 -22.7699
6.720942 89.776 -23.6113
6.769645 89.868 -24.4532
6.818700 89.960 -25.2954
6.868111 90.050 -26.1373
6.917881 90.140 -26.9788
6.968010 90.229 -27.8198
7.018504 90.316 -28.6606
7.069362 90.402 -29.5010
7.120590 90.487 -30.3405
7.172189 90.571 -31.1783
7.224161 90.654 -32.0140
7.276511 90.735 -32.8469
7.329239 90.816 -33.6766
7.382350 90.894 -34.5031
7.435845 90.972 -35.3262
7.489729 91.049 -36.1455
7.544002 91.124 -36.9604
7.598669 91.198 -37.7701
7.653732 91.272 -38.5742
7.709194 91.344 -39.3723
7.765058 91.415 -40.1641
7.821327 91.486 -40.9497
7.878004 91.555 -41.7290
7.935091 91.624 -42.5016
7.992592 91.693 -43.2674
8.050510 91.761 -44.0261
8.108847 91.828 -44.7776
8.167607 91.896 -45.5223
8.226793 91.963 -46.2606
8.286408 92.030 -46.9926
8.346454 92.097 -47.7189
8.406936 92.164 -48.4399
8.467856 92.231 -49.1558
8.529218 92.298 -49.8672
8.591024 92.366 -50.5748
8.653278 92.434 -51.2794
8.715983 92.503 -51.9819
8.779143 92.572 -52.6832
8.842760 92.641 -53.3838
8.906839 92.711 -54.0844
8.971381 92.781 -54.7858
9.036392 92.851 -55.4887
9.101873 92.921 -56.1940
9.167829 92.991 -56.9024
9.234263 93.062 -57.6144
9.301178 93.132 -58.3302
9.368578 93.202 -59.0502
9.436467 93.271 -59.7747
9.504847 93.340 -60.5037
9.573723 93.409 -61.2373
9.643099 93.476 -61.9755
9.712976 93.543 -62.7178
9.783361 93.608 -63.4637
9.854255 93.672 -64.2128
9.925663 93.735 -64.9642
9.997588 93.797 -65.7177
10.070035 93.857 -66.4722
10.143007 93.915 -67.2267
10.216507 93.972 -67.9803
10.290540 94.028 -68.7319
10.365109 94.082 -69.4807
10.440219 94.134 -70.2258
10.515873 94.185 -70.9663
10.592076 94.235 -71.7012
10.668830 94.284 -72.4296
10.746141 94.331 -73.1510
10.824012 94.378 -73.8650
10.902447 94.423 -74.5710
10.981451 94.468 -75.2690
11.061027 94.513 -75.9588
11.141180 94.558 -76.6405
11.221913 94.602 -77.3145
11.303232 94.646 -77.9813
11.385140 94.691 -78.6414
11.467641 94.736 -79.2957
11.550741 94.781 -79.9448
11.634442 94.827 -80.5899
11.718750 94.873 -81.2321
11.803669 94.920 -81.8722
11.889203 94.967 -82.5113
11.975357 95.015 -83.1503
12.062136 95.062 -83.7902
12.149543 95.110 -84.4316
12.237583 95.159 -85.0751
12.326262 95.207 -85.7212
12.415583 95.254 -86.3701
12.505552 95.302 -87.0217
12.596172 95.349 -87.6760
12.687449 95.395 -88.3326
12.779387 95.440 -88.9910
12.871992 95.484 -89.6505
12.965268 95.528 -90.3104
13.059220 95.570 -90.9698
13.153852 95.612 -91.6278
13.249170 95.652 -92.2836
13.345179 95.691 -92.9363
13.441884 95.730 -93.5853
13.539289 95.767 -94.2299
13.637401 95.804 -94.8696
13.736223 95.841 -95.5043
13.835761 95.877 -96.1339
13.936021 95.912 -96.7584
14.037007 95.948 -97.3783
14.138725 95.983 -97.9940
14.241180 96.018 -98.6063
14.344377 96.054 -99.2158
14.448323 96.089 -99.8234
14.553021 96.124 -100.4297
14.658478 96.160 -101.0356
14.764700 96.195 -101.6417
14.871691 96.230 -102.2485
14.979457 96.264 -102.8563
15.088005 96.298 -103.4651
15.197339 96.332 -104.0747
15.307465 96.364 -104.6848
15.418389 96.396 -105.2948
15.530117 96.426 -105.9039
15.642655 96.456 -106.5112
15.756008 96.484 -107.1157
15.870182 96.512 -107.7167
15.985184 96.539 -108.3131
16.101019 96.565 -108.9044
16.217694 96.590 -109.4900
16.335214 96.615 -110.0698
16.453586 96.639 -110.6438
16.572815 96.663 -111.2124
16.692909 96.688 -111.7762
16.813872 96.712 -112.3363
16.935713 96.737 -112.8936
17.058436 96.762 -113.4493
17.182048 96.788 -114.0046
17.306556 96.813 -114.5607
17.431967 96.838 -115.1184
17.558286 96.863 -115.6782
17.685521 96.888 -116.2406
17.813677 96.912 -116.8053
17.942762 96.935 -117.3719
18.072783 96.957 -117.9397
18.203746 96.979 -118.5074
18.335658 96.999 -119.0739
18.468526 97.017 -119.6375
18.602356 97.035 -120.1971
18.737156 97.052 -120.7515
18.872934 97.068 -121.2996
19.009695 97.083 -121.8409
19.147447 97.098 -122.3755
19.286197 97.113 -122.9034
19.425953 97.128 -123.4254
19.566721 97.144 -123.9427
19.708510 97.160 -124.4565
19.851326 97.176 -124.9683
19.995177 97.192 -125.4794
20.140070 97.209 -125.9912
20.286013 97.226 -126.5045
20.433014 97.243 -127.0200
20.581080 97.259 -127.5376
20.730219 97.275 -128.0571
20.880439 97.290 -128.5776
21.031747 97.304 -129.0983
21.184152 97.317 -129.6177
21.337661 97.330 -130.1348
21.492282 97.341 -130.6484
21.648024 97.352 -131.1578
21.804895 97.362 -131.6624
21.962902 97.371 -132.1622
22.122054 97.381 -132.6573
22.282360 97.390 -133.1485
22.443827 97.399 -133.6363
22.606464 97.408 -134.1216
22.770280 97.416 -134.6049
22.935283 97.424 -135.0865
23.101481 97.432 -135.5665
23.268884 97.439 -136.0445
23.437500 97.446 -136.5199
23.607338 97.452 -136.9919
23.778406 97.457 -137.4597
23.950714 97.462 -137.9227
24.124271 97.467 -138.3806
24.299086 97.472 -138.8339
24.475167 97.476 -139.2830
24.652524 97.481 -139.7292
24.831166 97.486 -140.1741
25.011103 97.491 -140.6188
25.192344 97.496 -141.0645
25.374898 97.500 -141.5117
25.558775 97.504 -141.9603
25.743984 97.507 -142.4092
25.930536 97.509 -142.8571
26.118439 97.510 -143.3018
26.307704 97.510 -143.7415
26.498341 97.510 -144.1747
26.690359 97.508 -144.6004
26.883768 97.507 -145.0188
27.078579 97.506 -145.4309
27.274801 97.506 -145.8385
27.472446 97.506 -146.2439
27.671522 97.506 -146.6494
27.872042 97.507 -147.0565
28.074014 97.508 -147.4661
28.277450 97.509 -147.8779
28.482360 97.508 -148.2910
28.688755 97.507 -148.7035
28.896645 97.505 -149.1133
29.106042 97.503 -149.5190
29.316957 97.500 -149.9197
29.529400 97.497 -150.3158
29.743382 97.494 -150.7084
29.958915 97.492 -151.0997
30.176009 97.490 -151.4919
30.394677 97.489 -151.8871
30.614929 97.487 -152.2865
30.836778 97.484 -152.6901
31.060234 97.481 -153.0966
31.285309 97.476 -153.5037
31.512015 97.469 -153.9083
31.740364 97.462 -154.3073
31.970368 97.453 -154.6982
32.202039 97.443 -155.0795
32.435388 97.434 -155.4514
32.670428 97.425 -155.8155
32.907171 97.418 -156.1750
33.145630 97.411 -156.5336
33.385817 97.404 -156.8950
33.627745 97.398 -157.2615
33.871425 97.392 -157.6335
34.116871 97.384 -158.0094
34.364096 97.375 -158.3853
34.613113 97.364 -158.7562
34.863934 97.352 -159.1172
35.116572 97.339 -159.4653
35.371041 97.326 -159.7999
35.627354 97.314 -160.1234
35.885525 97.304 -160.4406
36.145566 97.295 -160.7571
36.407492 97.288 -161.0778
36.671316 97.280 -161.4045
36.937051 97.273 -161.7366
37.204712 97.264 -162.0703
37.474313 97.253 -162.4011
37.745867 97.242 -162.7250
38.019389 97.231 -163.0405
38.294893 97.220 -163.3485
38.572394 97.211 -163.6520
38.851905 97.202 -163.9545
39.133442 97.193 -164.2585
39.417019 97.185 -164.5652
39.702651 97.176 -164.8740
39.990353 97.168 -165.1842
40.280140 97.159 -165.4958
40.572026 97.150 -165.8098
40.866028 97.140 -166.1273
41.162160 97.130 -166.4484
41.460438 97.118 -166.7710
41.760877 97.105 -167.0903
42.063494 97.089 -167.4006
42.368303 97.073 -167.6973
42.675322 97.056 -167.9791
42.984565 97.040 -168.2489
43.296048 97.026 -168.5125
43.609789 97.013 -168.7756
43.925804 97.000 -169.0411
44.244108 96.986 -169.3079
44.564719 96.971 -169.5712
44.887654 96.955 -169.8262
45.212928 96.939 -170.0708
45.540560 96.924 -170.3066
45.870565 96.910 -170.5390
46.202962 96.897 -170.7735
46.537768 96.884 -171.0135
46.875000 96.870 -171.2586
47.214676 96.855 -171.5054
47.556813 96.840 -171.7504
47.901429 96.824 -171.9916
48.248542 96.807 -172.2296
48.598171 96.791 -172.4662
48.950334 96.776 -172.7031
49.305048 96.760 -172.9408
49.662333 96.746 -173.1800
50.022206 96.732 -173.4230
50.384688 96.719 -173.6743
50.749796 96.707 -173.9387
51.117550 96.694 -174.2175
51.487969 96.679 -174.5066
51.861072 96.662 -174.7966
52.236879 96.642 -175.0769
52.615409 96.622 -175.3407
52.996681 96.602 -175.5889
53.380717 96.584 -175.8278
53.767536 96.567 -176.0648
54.157158 96.550 -176.3021
54.549603 96.532 -176.5357
54.944892 96.512 -176.7581
55.343045 96.493 -176.9647
55.744084 96.475 -177.1577
56.148028 96.459 -177.3458
56.554900 96.444 -177.5389
56.964720 96.430 -177.7424
57.377510 96.414 -177.9543
57.793291 96.395 -178.1671
58.212085 96.374 -178.3724
58.633914 96.353 -178.5651
59.058799 96.331 -178.7451
59.486764 96.311 -178.9169
59.917829 96.293 -179.0869
60.352019 96.276 -179.2616
60.789354 96.259 -179.4462
61.229859 96.243 -179.6426
61.673556 96.227 -179.8489
62.120468 96.208 179.9411
62.570618 96.187 179.7355
63.024031 96.165 179.5413
63.480729 96.143 179.3621
63.940736 96.122 179.1965
64.404077 96.102 179.0399
64.870776 96.083 178.8856
65.340856 96.065 178.7285
65.814343 96.047 178.5661
66.291261 96.029 178.3995
66.771635 96.009 178.2322
67.255489 95.988 178.0682
67.742850 95.967 177.9098
68.233743 95.945 177.7568
68.728193 95.924 177.6072
69.226226 95.904 177.4578
69.727867 95.884 177.3066
70.233144 95.864 177.1531
70.742083 95.844 176.9982
71.254709 95.824 176.8433
71.771050 95.803 176.6897
72.291132 95.783 176.5379
72.814984 95.763 176.3876
73.342631 95.742 176.2389
73.874102 95.721 176.0930
74.409424 95.699 175.9517
74.948626 95.677 175.8168
75.491734 95.655 175.6885
76.038779 95.633 175.5654
76.589787 95.612 175.4455
77.144788 95.591 175.3263
77.703811 95.571 175.2059
78.266885 95.551 175.0831
78.834039 95.531 174.9580
79.405303 95.511 174.8313
79.980706 95.491 174.7048
80.560280 95.470 174.5804
81.144053 95.450 174.4597
81.732056 95.429 174.3435
82.324320 95.408 174.2321
82.920876 95.387 174.1243
83.521755 95.366 174.0187
84.126988 95.346 173.9147
84.736607 95.325 173.8120
85.350643 95.304 173.7109
85.969129 95.283 173.6111
86.592097 95.263 173.5116
87.219579 95.243 173.4113
87.851608 95.223 173.3098
88.488217 95.203 173.2078
89.129439 95.183 173.1063
89.775308 95.164 173.0056
