* Measurement data measured by REW V5.31.3
* Source: Headset (CX31993 HIFI AUDIO), MICROPHONE (Master Volume), R, volume: 0.400
* Format: 256k Log Swept Sine, 1 sweep at -11.9 dBFS with no timing reference
* Dated: 05 20, 25 10:44:32 AM
* REW Settings:
*  C-weighting compensation: Off
*  Target level: 75.0 dB
* Note: ; 
* Measurement: Twistura Sigma R
* Smoothing: 1/12 octave
* Frequency Step: 96 ppo
* Start Frequency: 0.36621094 Hz
*
* Freq(Hz) SPL(dB) Phase(degrees)
0.366211 59.655 7.1236
0.368865 59.680 7.0639
0.371538 59.716 6.9756
0.374230 59.760 6.8669
0.376942 59.810 6.7446
0.379673 59.864 6.6138
0.382424 59.920 6.4777
0.385196 59.977 6.3384
0.387987 60.035 6.1971
0.390798 60.094 6.0544
0.393630 60.154 5.9107
0.396483 60.214 5.7661
0.399356 60.274 5.6209
0.402250 60.335 5.4750
0.405165 60.396 5.3284
0.408101 60.458 5.1812
0.411058 60.520 5.0334
0.414037 60.583 4.8850
0.417037 60.646 4.7359
0.420059 60.710 4.5863
0.423103 60.774 4.4360
0.426169 60.839 4.2852
0.429257 60.904 4.1337
0.432368 60.969 3.9816
0.435501 61.035 3.8289
0.438656 61.102 3.6756
0.441835 61.169 3.5216
0.445037 61.236 3.3670
0.448262 61.304 3.2117
0.451510 61.372 3.0558
0.454782 61.441 2.8993
0.458077 61.511 2.7420
0.461397 61.581 2.5841
0.464740 61.651 2.4254
0.468108 61.722 2.2661
0.471500 61.793 2.1059
0.474917 61.865 1.9451
0.478358 61.938 1.7834
0.481825 62.011 1.6210
0.485316 62.084 1.4577
0.488833 62.158 1.2936
0.492375 62.233 1.1286
0.495943 62.308 0.9627
0.499537 62.384 0.7959
0.503157 62.460 0.6281
0.506803 62.537 0.4593
0.510475 62.614 0.2895
0.514175 62.692 0.1187
0.517900 62.771 -0.0532
0.521653 62.850 -0.2263
0.525434 62.929 -0.4005
0.529241 63.009 -0.5759
0.533076 63.090 -0.7526
0.536939 63.172 -0.9305
0.540830 63.254 -1.1098
0.544749 63.336 -1.2905
0.548696 63.419 -1.4726
0.552673 63.503 -1.6562
0.556677 63.587 -1.8413
0.560711 63.672 -2.0280
0.564774 63.758 -2.2163
0.568867 63.844 -2.4063
0.572989 63.931 -2.5981
0.577141 64.019 -2.7916
0.581324 64.107 -2.9871
0.585536 64.195 -3.1844
0.589779 64.285 -3.3838
0.594053 64.375 -3.5852
0.598358 64.465 -3.7888
0.602694 64.557 -3.9945
0.607061 64.649 -4.2025
0.611460 64.742 -4.4129
0.615891 64.835 -4.6257
0.620354 64.929 -4.8410
0.624849 65.024 -5.0588
0.629377 65.119 -5.2794
0.633938 65.215 -5.5026
0.638532 65.312 -5.7287
0.643159 65.409 -5.9577
0.647819 65.508 -6.1898
0.652514 65.606 -6.4249
0.657242 65.706 -6.6632
0.662005 65.806 -6.9048
0.666802 65.908 -7.1498
0.671634 66.009 -7.3983
0.676501 66.112 -7.6504
0.681403 66.215 -7.9062
0.686341 66.319 -8.1658
0.691314 66.424 -8.4293
0.696324 66.529 -8.6968
0.701370 66.635 -8.9685
0.706452 66.741 -9.2442
0.711571 66.848 -9.5242
0.716728 66.954 -9.8083
0.721921 67.060 -10.0965
0.727153 67.165 -10.3883
0.732422 67.268 -10.6834
0.737729 67.368 -10.9813
0.743075 67.467 -11.2813
0.748460 67.564 -11.5829
0.753883 67.661 -11.8857
0.759346 67.757 -12.1894
0.764849 67.852 -12.4939
0.770391 67.947 -12.7989
0.775974 68.042 -13.1044
0.781597 68.138 -13.4102
0.787261 68.233 -13.7163
0.792966 68.328 -14.0227
0.798712 68.423 -14.3294
0.804500 68.518 -14.6362
0.810329 68.614 -14.9432
0.816201 68.709 -15.2503
0.822116 68.805 -15.5576
0.828073 68.900 -15.8650
0.834074 68.995 -16.1726
0.840118 69.091 -16.4803
0.846206 69.186 -16.7881
0.852338 69.282 -17.0961
0.858514 69.378 -17.4043
0.864735 69.473 -17.7127
0.871001 69.569 -18.0214
0.877313 69.665 -18.3304
0.883670 69.760 -18.6397
0.890074 69.856 -18.9494
0.896524 69.952 -19.2596
0.903020 70.048 -19.5702
0.909564 70.144 -19.8815
0.916155 70.240 -20.1934
0.922794 70.336 -20.5060
0.929481 70.433 -20.8195
0.936216 70.529 -21.1339
0.943000 70.625 -21.4492
0.949834 70.722 -21.7657
0.956717 70.818 -22.0834
0.963649 70.915 -22.4024
0.970632 71.012 -22.7228
0.977666 71.109 -23.0448
0.984750 71.206 -23.3685
0.991886 71.303 -23.6940
0.999074 71.400 -24.0215
1.006314 71.498 -24.3511
1.013606 71.595 -24.6829
1.020951 71.693 -25.0172
1.028349 71.791 -25.3540
1.035801 71.889 -25.6936
1.043307 71.988 -26.0361
1.050867 72.086 -26.3818
1.058482 72.185 -26.7307
1.066152 72.284 -27.0831
1.073878 72.383 -27.4392
1.081660 72.483 -27.7990
1.089498 72.582 -28.1629
1.097393 72.682 -28.5307
1.105345 72.782 -28.9025
1.113355 72.882 -29.2783
1.121423 72.981 -29.6580
1.129549 73.080 -30.0412
1.137734 73.180 -30.4280
1.145979 73.279 -30.8180
1.154283 73.377 -31.2110
1.162647 73.476 -31.6070
1.171072 73.574 -32.0055
1.179558 73.672 -32.4065
1.188106 73.770 -32.8097
1.196715 73.868 -33.2151
1.205387 73.965 -33.6223
1.214122 74.062 -34.0312
1.222920 74.159 -34.4417
1.231782 74.256 -34.8536
1.240708 74.353 -35.2667
1.249699 74.449 -35.6809
1.258754 74.545 -36.0960
1.267876 74.641 -36.5120
1.277063 74.737 -36.9287
1.286318 74.833 -37.3459
1.295639 74.928 -37.7636
1.305027 75.024 -38.1817
1.314484 75.119 -38.6000
1.324009 75.215 -39.0185
1.333604 75.310 -39.4371
1.343268 75.405 -39.8557
1.353002 75.500 -40.2742
1.362806 75.595 -40.6927
1.372681 75.690 -41.1110
1.382628 75.785 -41.5291
1.392647 75.880 -41.9470
1.402739 75.975 -42.3647
1.412904 76.071 -42.7822
1.423142 76.166 -43.1995
1.433455 76.261 -43.6168
1.443843 76.356 -44.0342
1.454305 76.452 -44.4519
1.464844 76.547 -44.8704
1.475459 76.642 -45.2899
1.486150 76.737 -45.7107
1.496920 76.831 -46.1332
1.507767 76.925 -46.5574
1.518693 77.019 -46.9834
1.529698 77.112 -47.4112
1.540783 77.205 -47.8407
1.551948 77.298 -48.2718
1.563194 77.390 -48.7044
1.574521 77.482 -49.1386
1.585931 77.573 -49.5740
1.597423 77.664 -50.0108
1.608999 77.755 -50.4488
1.620658 77.845 -50.8879
1.632402 77.935 -51.3280
1.644232 78.024 -51.7691
1.656146 78.114 -52.2113
1.668147 78.203 -52.6543
1.680235 78.291 -53.0981
1.692411 78.380 -53.5428
1.704675 78.468 -53.9883
1.717028 78.556 -54.4346
1.729470 78.644 -54.8817
1.742003 78.732 -55.3296
1.754626 78.819 -55.7784
1.767341 78.907 -56.2281
1.780147 78.994 -56.6788
1.793047 79.081 -57.1308
1.806040 79.168 -57.5843
1.819128 79.255 -58.0397
1.832310 79.341 -58.4975
1.845587 79.428 -58.9581
1.858961 79.513 -59.4221
1.872432 79.599 -59.8897
1.886001 79.684 -60.3609
1.899667 79.768 -60.8356
1.913433 79.852 -61.3136
1.927299 79.935 -61.7947
1.941265 80.018 -62.2785
1.955332 80.100 -62.7646
1.969501 80.182 -63.2528
1.983773 80.263 -63.7426
1.998148 80.343 -64.2337
2.012627 80.424 -64.7257
2.027212 80.504 -65.2183
2.041902 80.583 -65.7112
2.056698 80.662 -66.2040
2.071602 80.741 -66.6964
2.086614 80.819 -67.1882
2.101734 80.898 -67.6790
2.116964 80.975 -68.1686
2.132304 81.053 -68.6570
2.147756 81.131 -69.1439
2.163320 81.208 -69.6297
2.178996 81.285 -70.1145
2.194786 81.361 -70.5990
2.210690 81.437 -71.0839
2.226710 81.513 -71.5698
2.242845 81.588 -72.0574
2.259098 81.662 -72.5469
2.275468 81.736 -73.0383
2.291957 81.810 -73.5317
2.308566 81.882 -74.0268
2.325295 81.954 -74.5232
2.342145 82.026 -75.0208
2.359117 82.097 -75.5190
2.376212 82.168 -76.0175
2.393431 82.238 -76.5159
2.410775 82.307 -77.0139
2.428244 82.377 -77.5110
2.445840 82.446 -78.0069
2.463564 82.514 -78.5012
2.481416 82.582 -78.9937
2.499397 82.651 -79.4841
2.517509 82.718 -79.9723
2.535752 82.786 -80.4584
2.554127 82.853 -80.9427
2.572635 82.920 -81.4257
2.591277 82.986 -81.9080
2.610055 83.052 -82.3901
2.628968 83.117 -82.8724
2.648019 83.182 -83.3551
2.667208 83.246 -83.8383
2.686535 83.310 -84.3217
2.706003 83.373 -84.8053
2.725612 83.436 -85.2889
2.745363 83.498 -85.7721
2.765257 83.560 -86.2547
2.785295 83.621 -86.7363
2.805478 83.683 -87.2168
2.825808 83.744 -87.6959
2.846285 83.804 -88.1732
2.866910 83.865 -88.6486
2.887685 83.925 -89.1220
2.908611 83.985 -89.5935
2.929688 84.045 -90.0633
2.950917 84.105 -90.5317
2.972301 84.164 -90.9990
2.993839 84.223 -91.4656
3.015534 84.282 -91.9316
3.037386 84.340 -92.3972
3.059396 84.398 -92.8624
3.081565 84.455 -93.3271
3.103896 84.512 -93.7913
3.126388 84.569 -94.2548
3.149043 84.625 -94.7175
3.171862 84.682 -95.1792
3.194847 84.738 -95.6398
3.217998 84.794 -96.0992
3.241317 84.850 -96.5573
3.264805 84.906 -97.0140
3.288463 84.962 -97.4693
3.312293 85.018 -97.9234
3.336295 85.073 -98.3765
3.360471 85.129 -98.8286
3.384822 85.184 -99.2800
3.409350 85.239 -99.7309
3.434056 85.293 -100.1813
3.458940 85.348 -100.6314
3.484005 85.402 -101.0814
3.509252 85.456 -101.5314
3.534681 85.510 -101.9814
3.560295 85.564 -102.4317
3.586094 85.618 -102.8822
3.612081 85.672 -103.3331
3.638255 85.725 -103.7846
3.664620 85.778 -104.2366
3.691175 85.832 -104.6893
3.717923 85.885 -105.1428
3.744864 85.938 -105.5971
3.772001 85.991 -106.0523
3.799335 86.043 -106.5083
3.826866 86.095 -106.9652
3.854597 86.148 -107.4231
3.882529 86.199 -107.8820
3.910664 86.251 -108.3419
3.939002 86.302 -108.8030
3.967546 86.353 -109.2655
3.996296 86.403 -109.7294
4.025255 86.454 -110.1949
4.054423 86.503 -110.6624
4.083804 86.553 -111.1318
4.113396 86.602 -111.6033
4.143204 86.651 -112.0768
4.173227 86.699 -112.5522
4.203468 86.747 -113.0292
4.233928 86.794 -113.5077
4.264609 86.840 -113.9874
4.295512 86.886 -114.4684
4.326639 86.932 -114.9505
4.357992 86.976 -115.4338
4.389572 87.020 -115.9187
4.421380 87.063 -116.4055
4.453419 87.106 -116.8943
4.485691 87.147 -117.3853
4.518196 87.188 -117.8781
4.550936 87.228 -118.3725
4.583914 87.267 -118.8678
4.617131 87.305 -119.3634
4.650589 87.343 -119.8588
4.684289 87.379 -120.3536
4.718233 87.414 -120.8475
4.752424 87.448 -121.3406
4.786862 87.481 -121.8332
4.821549 87.514 -122.3255
4.856488 87.544 -122.8177
4.891680 87.574 -123.3093
4.927127 87.603 -123.8000
4.962831 87.631 -124.2890
4.998794 87.657 -124.7754
5.035017 87.683 -125.2584
5.071503 87.707 -125.7375
5.108253 87.730 -126.2122
5.145270 87.753 -126.6826
5.182555 87.774 -127.1488
5.220110 87.794 -127.6109
5.257937 87.813 -128.0688
5.296038 87.830 -128.5221
5.334415 87.847 -128.9703
5.373071 87.863 -129.4125
5.412006 87.879 -129.8481
5.451224 87.893 -130.2765
5.490725 87.907 -130.6973
5.530514 87.920 -131.1104
5.570590 87.933 -131.5156
5.610957 87.945 -131.9132
5.651616 87.956 -132.3033
5.692570 87.967 -132.6858
5.733821 87.978 -133.0606
5.775370 87.989 -133.4277
5.817221 87.999 -133.7867
5.859375 88.010 -134.1374
5.901834 88.021 -134.4796
5.944602 88.032 -134.8136
5.987679 88.043 -135.1396
6.031068 88.055 -135.4582
6.074771 88.067 -135.7703
6.118792 88.080 -136.0766
6.163131 88.093 -136.3778
6.207792 88.108 -136.6742
6.252776 88.123 -136.9661
6.298086 88.139 -137.2536
6.343725 88.156 -137.5373
6.389694 88.174 -137.8180
6.435996 88.193 -138.0971
6.482634 88.213 -138.3757
6.529610 88.234 -138.6552
6.576926 88.256 -138.9365
6.624585 88.279 -139.2200
6.672590 88.304 -139.5064
6.720942 88.329 -139.7959
6.769645 88.355 -140.0896
6.818700 88.381 -140.3883
6.868111 88.409 -140.6933
6.917881 88.436 -141.0055
6.968010 88.464 -141.3257
7.018504 88.493 -141.6541
7.069362 88.522 -141.9911
7.120590 88.550 -142.3368
7.172189 88.579 -142.6912
7.224161 88.608 -143.0545
7.276511 88.635 -143.4270
7.329239 88.663 -143.8089
7.382350 88.689 -144.2003
7.435845 88.714 -144.6008
7.489729 88.739 -145.0100
7.544002 88.762 -145.4269
7.598669 88.784 -145.8509
7.653732 88.804 -146.2812
7.709194 88.823 -146.7174
7.765058 88.840 -147.1588
7.821327 88.855 -147.6049
7.878004 88.869 -148.0545
7.935091 88.880 -148.5061
7.992592 88.890 -148.9584
8.050510 88.898 -149.4102
8.108847 88.903 -149.8605
8.167607 88.907 -150.3088
8.226793 88.909 -150.7538
8.286408 88.909 -151.1943
8.346454 88.907 -151.6289
8.406936 88.903 -152.0563
8.467856 88.898 -152.4756
8.529218 88.892 -152.8861
8.591024 88.884 -153.2872
8.653278 88.876 -153.6781
8.715983 88.866 -154.0583
8.779143 88.856 -154.4270
8.842760 88.845 -154.7839
8.906839 88.834 -155.1288
8.971381 88.824 -155.4619
9.036392 88.813 -155.7837
9.101873 88.803 -156.0945
9.167829 88.793 -156.3947
9.234263 88.785 -156.6850
9.301178 88.777 -156.9661
9.368578 88.771 -157.2393
9.436467 88.766 -157.5061
9.504847 88.763 -157.7678
9.573723 88.761 -158.0257
9.643099 88.761 -158.2812
9.712976 88.762 -158.5358
9.783361 88.765 -158.7913
9.854255 88.770 -159.0494
9.925663 88.776 -159.3116
9.997588 88.784 -159.5792
10.070035 88.792 -159.8534
10.143007 88.802 -160.1354
10.216507 88.813 -160.4264
10.290540 88.824 -160.7272
10.365109 88.836 -161.0384
10.440219 88.848 -161.3601
10.515873 88.860 -161.6925
10.592076 88.871 -162.0352
10.668830 88.881 -162.3881
10.746141 88.891 -162.7504
10.824012 88.899 -163.1211
10.902447 88.906 -163.4989
10.981451 88.912 -163.8823
11.061027 88.915 -164.2699
11.141180 88.917 -164.6600
11.221913 88.917 -165.0505
11.303232 88.915 -165.4395
11.385140 88.911 -165.8248
11.467641 88.905 -166.2047
11.550741 88.897 -166.5773
11.634442 88.888 -166.9409
11.718750 88.878 -167.2939
11.803669 88.867 -167.6349
11.889203 88.855 -167.9633
11.975357 88.842 -168.2786
12.062136 88.830 -168.5807
12.149543 88.819 -168.8701
12.237583 88.808 -169.1475
12.326262 88.798 -169.4146
12.415583 88.789 -169.6732
12.505552 88.783 -169.9257
12.596172 88.778 -170.1743
12.687449 88.774 -170.4220
12.779387 88.773 -170.6716
12.871992 88.773 -170.9261
12.965268 88.774 -171.1879
13.059220 88.777 -171.4592
13.153852 88.779 -171.7418
13.249170 88.782 -172.0368
13.345179 88.785 -172.3447
13.441884 88.786 -172.6650
13.539289 88.785 -172.9966
13.637401 88.783 -173.3377
13.736223 88.777 -173.6856
13.835761 88.769 -174.0369
13.936021 88.757 -174.3880
14.037007 88.743 -174.7347
14.138725 88.725 -175.0730
14.241180 88.704 -175.3986
14.344377 88.680 -175.7077
14.448323 88.655 -175.9972
14.553021 88.628 -176.2646
14.658478 88.600 -176.5084
14.764700 88.573 -176.7283
14.871691 88.547 -176.9251
14.979457 88.522 -177.1012
15.088005 88.500 -177.2596
15.197339 88.481 -177.4047
15.307465 88.465 -177.5414
15.418389 88.453 -177.6751
15.530117 88.444 -177.8111
15.642655 88.438 -177.9545
15.756008 88.435 -178.1097
15.870182 88.434 -178.2801
15.985184 88.435 -178.4676
16.101019 88.436 -178.6733
16.217694 88.437 -178.8967
16.335214 88.437 -179.1363
16.453586 88.436 -179.3895
16.572815 88.433 -179.6532
16.692909 88.429 -179.9240
16.813872 88.423 179.8012
16.935713 88.415 179.5256
17.058436 88.407 179.2510
17.182048 88.398 178.9789
17.306556 88.389 178.7094
17.431967 88.380 178.4418
17.558286 88.371 178.1744
17.685521 88.364 177.9051
17.813677 88.357 177.6315
17.942762 88.350 177.3513
18.072783 88.344 177.0630
18.203746 88.337 176.7657
18.335658 88.329 176.4597
18.468526 88.320 176.1465
18.602356 88.309 175.8287
18.737156 88.296 175.5096
18.872934 88.280 175.1932
19.009695 88.263 174.8838
19.147447 88.243 174.5849
19.286197 88.222 174.2998
19.425953 88.201 174.0303
19.566721 88.179 173.7772
19.708510 88.157 173.5397
19.851326 88.136 173.3163
19.995177 88.117 173.1043
20.140070 88.098 172.9008
20.286013 88.081 172.7032
20.433014 88.065 172.5094
20.581080 88.048 172.3184
20.730219 88.032 172.1303
20.880439 88.014 171.9469
21.031747 87.996 171.7705
21.184152 87.977 171.6042
21.337661 87.958 171.4512
21.492282 87.938 171.3138
21.648024 87.918 171.1935
21.804895 87.899 171.0899
21.962902 87.881 171.0010
22.122054 87.866 170.9232
22.282360 87.853 170.8511
22.443827 87.843 170.7788
22.606464 87.836 170.7002
22.770280 87.831 170.6093
22.935283 87.826 170.5013
23.101481 87.822 170.3730
23.268884 87.818 170.2225
23.437500 87.812 170.0499
23.607338 87.803 169.8568
23.778406 87.792 169.6459
23.950714 87.776 169.4212
24.124271 87.756 169.1875
24.299086 87.732 168.9500
24.475167 87.703 168.7142
24.652524 87.670 168.4856
24.831166 87.634 168.2693
25.011103 87.595 168.0694
25.192344 87.554 167.8883
25.374898 87.513 167.7267
25.558775 87.473 167.5826
25.743984 87.434 167.4514
25.930536 87.398 167.3260
26.118439 87.366 167.1981
26.307704 87.337 167.0587
26.498341 87.310 166.9001
26.690359 87.285 166.7169
26.883768 87.260 166.5074
27.078579 87.234 166.2740
27.274801 87.205 166.0228
27.472446 87.174 165.7625
27.671522 87.139 165.5028
27.872042 87.102 165.2530
28.074014 87.064 165.0193
28.277450 87.026 164.8047
28.482360 86.989 164.6082
28.688755 86.956 164.4255
28.896645 86.924 164.2510
29.106042 86.896 164.0793
29.316957 86.869 163.9077
29.529400 86.842 163.7365
29.743382 86.816 163.5699
29.958915 86.789 163.4139
30.176009 86.761 163.2752
30.394677 86.734 163.1584
30.614929 86.708 163.0645
30.836778 86.685 162.9900
31.060234 86.664 162.9279
31.285309 86.647 162.8695
31.512015 86.630 162.8074
31.740364 86.613 162.7383
31.970368 86.595 162.6646
32.202039 86.573 162.5944
32.435388 86.546 162.5397
32.670428 86.516 162.5130
32.907171 86.485 162.5232
33.145630 86.454 162.5719
33.385817 86.426 162.6516
33.627745 86.405 162.7458
33.871425 86.389 162.8322
34.116871 86.379 162.8876
34.364096 86.371 162.8938
34.613113 86.363 162.8417
34.863934 86.350 162.7336
35.116572 86.330 162.5823
35.371041 86.300 162.4074
35.627354 86.262 162.2308
35.885525 86.216 162.0714
36.145566 86.165 161.9412
36.407492 86.112 161.8439
36.671316 86.060 161.7753
36.937051 86.011 161.7266
37.204712 85.966 161.6882
37.474313 85.924 161.6527
37.745867 85.886 161.6166
38.019389 85.851 161.5790
38.294893 85.821 161.5394
38.572394 85.796 161.4948
38.851905 85.776 161.4388
39.133442 85.762 161.3613
39.417019 85.753 161.2524
39.702651 85.747 161.1051
39.990353 85.741 160.9186
40.280140 85.732 160.6989
40.572026 85.720 160.4579
40.866028 85.702 160.2101
41.162160 85.679 159.9706
41.460438 85.650 159.7523
41.760877 85.617 159.5658
42.063494 85.581 159.4193
42.368303 85.542 159.3191
42.675322 85.502 159.2686
42.984565 85.464 159.2671
43.296048 85.428 159.3087
43.609789 85.397 159.3817
43.925804 85.371 159.4706
44.244108 85.350 159.5594
44.564719 85.334 159.6346
44.887654 85.321 159.6873
45.212928 85.309 159.7123
45.540560 85.298 159.7060
45.870565 85.286 159.6646
46.202962 85.274 159.5837
46.537768 85.260 159.4611
46.875000 85.240 159.2994
47.214676 85.215 159.1090
47.556813 85.182 158.9063
47.901429 85.142 158.7094
48.248542 85.097 158.5317
48.598171 85.049 158.3787
48.950334 85.001 158.2474
49.305048 84.953 158.1324
49.662333 84.903 158.0332
50.022206 84.852 157.9586
50.384688 84.800 157.9257
50.749796 84.749 157.9514
51.117550 84.705 158.0406
51.487969 84.671 158.1790
51.861072 84.651 158.3337
52.236879 84.645 158.4648
52.615409 84.649 158.5412
52.996681 84.658 158.5515
53.380717 84.667 158.5043
53.767536 84.674 158.4195
54.157158 84.677 158.3152
54.549603 84.679 158.2000
54.944892 84.679 158.0738
55.343045 84.677 157.9341
55.744084 84.670 157.7848
56.148028 84.656 157.6385
56.554900 84.636 157.5139
56.964720 84.611 157.4283
57.377510 84.582 157.3914
57.793291 84.552 157.4010
58.212085 84.524 157.4445
58.633914 84.496 157.5041
59.058799 84.469 157.5644
59.486764 84.439 157.6200
59.917829 84.403 157.6775
60.352019 84.363 157.7505
60.789354 84.318 157.8499
61.229859 84.273 157.9746
61.673556 84.228 158.1122
62.120468 84.184 158.2473
62.570618 84.141 158.3719
63.024031 84.098 158.4884
63.480729 84.056 158.6031
63.940736 84.018 158.7170
64.404077 83.985 158.8207
64.870776 83.960 158.8986
65.340856 83.941 158.9373
65.814343 83.925 158.9330
66.291261 83.912 158.8929
66.771635 83.899 158.8315
67.255489 83.886 158.7643
67.742850 83.875 158.7022
68.233743 83.864 158.6501
68.728193 83.854 158.6099
69.226226 83.844 158.5827
69.727867 83.836 158.5670
70.233144 83.827 158.5551
70.742083 83.817 158.5334
71.254709 83.804 158.4918
71.771050 83.784 158.4326
72.291132 83.755 158.3701
72.814984 83.718 158.3198
73.342631 83.676 158.2889
73.874102 83.629 158.2747
74.409424 83.581 158.2709
74.948626 83.532 158.2716
75.491734 83.485 158.2714
76.038779 83.440 158.2639
76.589787 83.397 158.2432
77.144788 83.358 158.2073
77.703811 83.320 158.1615
78.266885 83.283 158.1184
78.834039 83.248 158.0953
79.405303 83.216 158.1080
79.980706 83.189 158.1651
80.560280 83.169 158.2648
81.144053 83.158 158.3948
81.732056 83.154 158.5362
82.324320 83.156 158.6703
82.920876 83.160 158.7858
83.521755 83.161 158.8823
84.126988 83.158 158.9675
84.736607 83.149 159.0495
85.350643 83.135 159.1311
85.969129 83.115 159.2087
86.592097 83.090 159.2780
87.219579 83.061 159.3367
87.851608 83.028 159.3824
88.488217 82.993 159.4089
89.129439 82.958 159.4088
89.775308 82.922 159.3816
90.425856 82.886 159.3353
91.081119 82.851 159.2787
