* Measurement data measured by REW V5.31.3
* Source: Headset (CX31993 HIFI AUDIO), MICROPHONE (Master Volume), R, volume: 0.400
* Format: 256k Log Swept Sine, 1 sweep at -11.9 dBFS with no timing reference
* Dated: 06 25, 25 11:50:28 AM
* REW Settings:
*  C-weighting compensation: Off
*  Target level: 75.0 dB
* Note: ; 
* Measurement: Xiaomi Buds 6 Play L
* Smoothing: 1/12 octave
* Frequency Step: 96 ppo
* Start Frequency: 0.36621094 Hz
*
* Freq(Hz) SPL(dB) Phase(degrees)
0.366211 47.603 155.3843
0.368865 47.602 155.3376
0.371538 47.601 155.2678
0.374230 47.599 155.1808
0.376942 47.597 155.0812
0.379673 47.595 154.9727
0.382424 47.593 154.8575
0.385196 47.591 154.7372
0.387987 47.588 154.6126
0.390798 47.586 154.4840
0.393630 47.584 154.3518
0.396483 47.581 154.2159
0.399356 47.579 154.0765
0.402250 47.577 153.9335
0.405165 47.574 153.7869
0.408101 47.572 153.6366
0.411058 47.569 153.4827
0.414037 47.567 153.3250
0.417037 47.564 153.1635
0.420059 47.562 152.9982
0.423103 47.559 152.8290
0.426169 47.557 152.6558
0.429257 47.554 152.4788
0.432368 47.552 152.2976
0.435501 47.549 152.1125
0.438656 47.547 151.9232
0.441835 47.544 151.7297
0.445037 47.541 151.5320
0.448262 47.539 151.3301
0.451510 47.536 151.1238
0.454782 47.533 150.9132
0.458077 47.531 150.6982
0.461397 47.528 150.4787
0.464740 47.525 150.2547
0.468108 47.522 150.0262
0.471500 47.520 149.7930
0.474917 47.517 149.5552
0.478358 47.514 149.3127
0.481825 47.511 149.0654
0.485316 47.508 148.8133
0.488833 47.505 148.5564
0.492375 47.502 148.2945
0.495943 47.499 148.0277
0.499537 47.496 147.7559
0.503157 47.493 147.4790
0.506803 47.490 147.1970
0.510475 47.487 146.9098
0.514175 47.484 146.6175
0.517900 47.481 146.3199
0.521653 47.478 146.0170
0.525434 47.475 145.7087
0.529241 47.472 145.3950
0.533076 47.469 145.0758
0.536939 47.466 144.7512
0.540830 47.462 144.4209
0.544749 47.459 144.0851
0.548696 47.456 143.7436
0.552673 47.453 143.3964
0.556677 47.449 143.0434
0.560711 47.446 142.6846
0.564774 47.443 142.3200
0.568867 47.439 141.9494
0.572989 47.436 141.5728
0.577141 47.432 141.1902
0.581324 47.429 140.8016
0.585536 47.426 140.4068
0.589779 47.422 140.0058
0.594053 47.418 139.5986
0.598358 47.415 139.1851
0.602694 47.411 138.7652
0.607061 47.408 138.3390
0.611460 47.404 137.9062
0.615891 47.400 137.4670
0.620354 47.397 137.0212
0.624849 47.393 136.5687
0.629377 47.389 136.1095
0.633938 47.386 135.6436
0.638532 47.382 135.1708
0.643159 47.378 134.6912
0.647819 47.374 134.2046
0.652514 47.370 133.7109
0.657242 47.366 133.2102
0.662005 47.362 132.7023
0.666802 47.359 132.1871
0.671634 47.355 131.6646
0.676501 47.351 131.1347
0.681403 47.347 130.5973
0.686341 47.343 130.0523
0.691314 47.339 129.4996
0.696324 47.335 128.9391
0.701370 47.331 128.3708
0.706452 47.327 127.7943
0.711571 47.324 127.2097
0.716728 47.322 126.6166
0.721921 47.322 126.0147
0.727153 47.323 125.4037
0.732422 47.327 124.7831
0.737729 47.335 124.1524
0.743075 47.345 123.5112
0.748460 47.358 122.8591
0.753883 47.372 122.1959
0.759346 47.389 121.5216
0.764849 47.406 120.8362
0.770391 47.425 120.1397
0.775974 47.444 119.4323
0.781597 47.465 118.7142
0.787261 47.486 117.9854
0.792966 47.508 117.2463
0.798712 47.531 116.4969
0.804500 47.554 115.7377
0.810329 47.579 114.9687
0.816201 47.604 114.1903
0.822116 47.630 113.4026
0.828073 47.657 112.6061
0.834074 47.685 111.8009
0.840118 47.714 110.9874
0.846206 47.744 110.1659
0.852338 47.775 109.3366
0.858514 47.807 108.4999
0.864735 47.839 107.6561
0.871001 47.873 106.8055
0.877313 47.908 105.9484
0.883670 47.943 105.0852
0.890074 47.980 104.2163
0.896524 48.018 103.3418
0.903020 48.057 102.4622
0.909564 48.096 101.5777
0.916155 48.137 100.6886
0.922794 48.179 99.7953
0.929481 48.223 98.8981
0.936216 48.267 97.9973
0.943000 48.312 97.0930
0.949834 48.359 96.1856
0.956717 48.407 95.2754
0.963649 48.456 94.3625
0.970632 48.506 93.4472
0.977666 48.557 92.5298
0.984750 48.610 91.6103
0.991886 48.664 90.6890
0.999074 48.719 89.7660
1.006314 48.775 88.8415
1.013606 48.833 87.9155
1.020951 48.892 86.9883
1.028349 48.952 86.0598
1.035801 49.014 85.1301
1.043307 49.077 84.1993
1.050867 49.142 83.2673
1.058482 49.208 82.3343
1.066152 49.275 81.4001
1.073878 49.344 80.4647
1.081660 49.415 79.5282
1.089498 49.487 78.5905
1.097393 49.562 77.6517
1.105345 49.638 76.7121
1.113355 49.717 75.7718
1.121423 49.798 74.8313
1.129549 49.882 73.8911
1.137734 49.969 72.9515
1.145979 50.058 72.0131
1.154283 50.149 71.0764
1.162647 50.244 70.1418
1.171072 50.340 69.2098
1.179558 50.440 68.2808
1.188106 50.541 67.3551
1.196715 50.646 66.4333
1.205387 50.752 65.5155
1.214122 50.861 64.6022
1.222920 50.971 63.6935
1.231782 51.084 62.7899
1.240708 51.199 61.8915
1.249699 51.316 60.9985
1.258754 51.435 60.1111
1.267876 51.555 59.2295
1.277063 51.677 58.3539
1.286318 51.801 57.4842
1.295639 51.926 56.6207
1.305027 52.052 55.7633
1.314484 52.180 54.9121
1.324009 52.309 54.0672
1.333604 52.438 53.2285
1.343268 52.569 52.3959
1.353002 52.700 51.5695
1.362806 52.832 50.7491
1.372681 52.963 49.9348
1.382628 53.096 49.1263
1.392647 53.228 48.3236
1.402739 53.360 47.5265
1.412904 53.492 46.7349
1.423142 53.623 45.9487
1.433455 53.755 45.1678
1.443843 53.885 44.3922
1.454305 54.016 43.6217
1.464844 54.146 42.8565
1.475459 54.276 42.0968
1.486150 54.407 41.3427
1.496920 54.538 40.5945
1.507767 54.670 39.8522
1.518693 54.802 39.1159
1.529698 54.936 38.3857
1.540783 55.071 37.6616
1.551948 55.206 36.9434
1.563194 55.342 36.2311
1.574521 55.479 35.5245
1.585931 55.617 34.8235
1.597423 55.755 34.1278
1.608999 55.894 33.4374
1.620658 56.033 32.7520
1.632402 56.173 32.0713
1.644232 56.314 31.3951
1.656146 56.455 30.7231
1.668147 56.596 30.0551
1.680235 56.737 29.3909
1.692411 56.879 28.7299
1.704675 57.021 28.0721
1.717028 57.163 27.4170
1.729470 57.304 26.7644
1.742003 57.446 26.1138
1.754626 57.587 25.4650
1.767341 57.729 24.8176
1.780147 57.869 24.1713
1.793047 58.010 23.5257
1.806040 58.150 22.8807
1.819128 58.289 22.2359
1.832310 58.428 21.5912
1.845587 58.567 20.9468
1.858961 58.705 20.3026
1.872432 58.843 19.6590
1.886001 58.980 19.0161
1.899667 59.117 18.3743
1.913433 59.254 17.7339
1.927299 59.390 17.0952
1.941265 59.526 16.4584
1.955332 59.662 15.8237
1.969501 59.798 15.1914
1.983773 59.933 14.5616
1.998148 60.068 13.9346
2.012627 60.203 13.3103
2.027212 60.337 12.6890
2.041902 60.471 12.0707
2.056698 60.605 11.4553
2.071602 60.738 10.8431
2.086614 60.872 10.2338
2.101734 61.005 9.6275
2.116964 61.137 9.0241
2.132304 61.270 8.4235
2.147756 61.402 7.8254
2.163320 61.534 7.2295
2.178996 61.665 6.6356
2.194786 61.796 6.0430
2.210690 61.926 5.4514
2.226710 62.056 4.8605
2.242845 62.186 4.2698
2.259098 62.314 3.6795
2.275468 62.443 3.0896
2.291957 62.570 2.5003
2.308566 62.697 1.9119
2.325295 62.823 1.3246
2.342145 62.948 0.7388
2.359117 63.073 0.1546
2.376212 63.197 -0.4276
2.393431 63.321 -1.0076
2.410775 63.445 -1.5852
2.428244 63.568 -2.1602
2.445840 63.690 -2.7324
2.463564 63.812 -3.3018
2.481416 63.934 -3.8682
2.499397 64.055 -4.4317
2.517509 64.176 -4.9923
2.535752 64.297 -5.5504
2.554127 64.417 -6.1064
2.572635 64.537 -6.6607
2.591277 64.656 -7.2139
2.610055 64.775 -7.7663
2.628968 64.893 -8.3183
2.648019 65.010 -8.8698
2.667208 65.126 -9.4207
2.686535 65.242 -9.9708
2.706003 65.357 -10.5199
2.725612 65.471 -11.0676
2.745363 65.585 -11.6136
2.765257 65.698 -12.1577
2.785295 65.811 -12.6996
2.805478 65.923 -13.2389
2.825808 66.035 -13.7755
2.846285 66.147 -14.3093
2.866910 66.258 -14.8400
2.887685 66.369 -15.3678
2.908611 66.479 -15.8929
2.929688 66.590 -16.4155
2.950917 66.699 -16.9362
2.972301 66.808 -17.4553
2.993839 66.917 -17.9732
3.015534 67.025 -18.4900
3.037386 67.132 -19.0057
3.059396 67.239 -19.5202
3.081565 67.345 -20.0334
3.103896 67.451 -20.5449
3.126388 67.556 -21.0547
3.149043 67.661 -21.5623
3.171862 67.765 -22.0677
3.194847 67.869 -22.5705
3.217998 67.973 -23.0707
3.241317 68.077 -23.5681
3.264805 68.181 -24.0627
3.288463 68.284 -24.5545
3.312293 68.387 -25.0440
3.336295 68.490 -25.5312
3.360471 68.592 -26.0165
3.384822 68.694 -26.5000
3.409350 68.795 -26.9819
3.434056 68.896 -27.4623
3.458940 68.997 -27.9413
3.484005 69.097 -28.4189
3.509252 69.197 -28.8950
3.534681 69.297 -29.3697
3.560295 69.397 -29.8429
3.586094 69.496 -30.3147
3.612081 69.596 -30.7851
3.638255 69.695 -31.2542
3.664620 69.795 -31.7218
3.691175 69.894 -32.1883
3.717923 69.993 -32.6535
3.744864 70.091 -33.1178
3.772001 70.190 -33.5811
3.799335 70.288 -34.0436
3.826866 70.386 -34.5055
3.854597 70.484 -34.9669
3.882529 70.582 -35.4279
3.910664 70.679 -35.8886
3.939002 70.777 -36.3493
3.967546 70.874 -36.8099
3.996296 70.971 -37.2706
4.025255 71.068 -37.7314
4.054423 71.165 -38.1924
4.083804 71.262 -38.6537
4.113396 71.359 -39.1151
4.143204 71.455 -39.5769
4.173227 71.551 -40.0391
4.203468 71.647 -40.5018
4.233928 71.743 -40.9651
4.264609 71.839 -41.4292
4.295512 71.934 -41.8943
4.326639 72.029 -42.3604
4.357992 72.124 -42.8279
4.389572 72.218 -43.2967
4.421380 72.313 -43.7670
4.453419 72.407 -44.2388
4.485691 72.500 -44.7122
4.518196 72.594 -45.1871
4.550936 72.686 -45.6634
4.583914 72.779 -46.1409
4.617131 72.871 -46.6196
4.650589 72.963 -47.0995
4.684289 73.054 -47.5806
4.718233 73.145 -48.0629
4.752424 73.236 -48.5466
4.786862 73.325 -49.0318
4.821549 73.415 -49.5186
4.856488 73.504 -50.0071
4.891680 73.592 -50.4971
4.927127 73.680 -50.9883
4.962831 73.767 -51.4805
4.998794 73.853 -51.9734
5.035017 73.939 -52.4668
5.071503 74.025 -52.9606
5.108253 74.110 -53.4547
5.145270 74.194 -53.9494
5.182555 74.277 -54.4446
5.220110 74.360 -54.9406
5.257937 74.442 -55.4371
5.296038 74.524 -55.9340
5.334415 74.605 -56.4309
5.373071 74.685 -56.9274
5.412006 74.765 -57.4233
5.451224 74.844 -57.9184
5.490725 74.922 -58.4126
5.530514 75.000 -58.9060
5.570590 75.077 -59.3988
5.610957 75.154 -59.8909
5.651616 75.230 -60.3824
5.692570 75.305 -60.8729
5.733821 75.380 -61.3623
5.775370 75.455 -61.8504
5.817221 75.529 -62.3369
5.859375 75.602 -62.8218
5.901834 75.675 -63.3052
5.944602 75.748 -63.7872
5.987679 75.820 -64.2679
6.031068 75.891 -64.7473
6.074771 75.963 -65.2254
6.118792 76.033 -65.7022
6.163131 76.104 -66.1776
6.207792 76.174 -66.6517
6.252776 76.244 -67.1246
6.298086 76.314 -67.5962
6.343725 76.383 -68.0667
6.389694 76.452 -68.5363
6.435996 76.521 -69.0050
6.482634 76.589 -69.4730
6.529610 76.657 -69.9403
6.576926 76.725 -70.4071
6.624585 76.793 -70.8733
6.672590 76.860 -71.3392
6.720942 76.928 -71.8048
6.769645 76.994 -72.2701
6.818700 77.061 -72.7352
6.868111 77.127 -73.2002
6.917881 77.193 -73.6652
6.968010 77.258 -74.1301
7.018504 77.324 -74.5952
7.069362 77.388 -75.0603
7.120590 77.453 -75.5255
7.172189 77.517 -75.9906
7.224161 77.580 -76.4556
7.276511 77.644 -76.9202
7.329239 77.706 -77.3846
7.382350 77.768 -77.8487
7.435845 77.830 -78.3124
7.489729 77.891 -78.7757
7.544002 77.952 -79.2381
7.598669 78.012 -79.6997
7.653732 78.072 -80.1601
7.709194 78.131 -80.6192
7.765058 78.190 -81.0770
7.821327 78.249 -81.5334
7.878004 78.306 -81.9883
7.935091 78.364 -82.4413
7.992592 78.421 -82.8925
8.050510 78.477 -83.3415
8.108847 78.534 -83.7884
8.167607 78.590 -84.2332
8.226793 78.645 -84.6758
8.286408 78.701 -85.1163
8.346454 78.756 -85.5546
8.406936 78.811 -85.9907
8.467856 78.865 -86.4247
8.529218 78.920 -86.8567
8.591024 78.974 -87.2867
8.653278 79.029 -87.7151
8.715983 79.083 -88.1419
8.779143 79.137 -88.5673
8.842760 79.191 -88.9914
8.906839 79.245 -89.4145
8.971381 79.299 -89.8366
9.036392 79.353 -90.2580
9.101873 79.407 -90.6790
9.167829 79.460 -91.0996
9.234263 79.514 -91.5200
9.301178 79.567 -91.9403
9.368578 79.621 -92.3605
9.436467 79.674 -92.7808
9.504847 79.727 -93.2012
9.573723 79.779 -93.6217
9.643099 79.831 -94.0423
9.712976 79.883 -94.4630
9.783361 79.935 -94.8836
9.854255 79.986 -95.3041
9.925663 80.037 -95.7243
9.997588 80.088 -96.1442
10.070035 80.138 -96.5635
10.143007 80.188 -96.9822
10.216507 80.237 -97.4002
10.290540 80.286 -97.8171
10.365109 80.334 -98.2331
10.440219 80.383 -98.6479
10.515873 80.430 -99.0616
10.592076 80.478 -99.4740
10.668830 80.525 -99.8850
10.746141 80.572 -100.2948
10.824012 80.619 -100.7033
10.902447 80.665 -101.1105
10.981451 80.711 -101.5166
11.061027 80.756 -101.9215
11.141180 80.802 -102.3253
11.221913 80.847 -102.7280
11.303232 80.891 -103.1298
11.385140 80.936 -103.5306
11.467641 80.980 -103.9304
11.550741 81.024 -104.3292
11.634442 81.067 -104.7270
11.718750 81.110 -105.1237
11.803669 81.153 -105.5191
11.889203 81.195 -105.9131
11.975357 81.236 -106.3056
12.062136 81.278 -106.6963
12.149543 81.319 -107.0850
12.237583 81.359 -107.4716
12.326262 81.399 -107.8559
12.415583 81.439 -108.2378
12.505552 81.479 -108.6171
12.596172 81.518 -108.9937
12.687449 81.557 -109.3677
12.779387 81.596 -109.7392
12.871992 81.635 -110.1082
12.965268 81.674 -110.4750
13.059220 81.713 -110.8398
13.153852 81.752 -111.2030
13.249170 81.791 -111.5649
13.345179 81.830 -111.9259
13.441884 81.869 -112.2865
13.539289 81.908 -112.6471
13.637401 81.947 -113.0081
13.736223 81.986 -113.3699
13.835761 82.026 -113.7328
13.936021 82.065 -114.0971
14.037007 82.103 -114.4630
14.138725 82.142 -114.8305
14.241180 82.180 -115.1997
14.344377 82.218 -115.5705
14.448323 82.256 -115.9428
14.553021 82.292 -116.3162
14.658478 82.329 -116.6905
14.764700 82.364 -117.0652
14.871691 82.399 -117.4399
14.979457 82.434 -117.8142
15.088005 82.467 -118.1874
15.197339 82.500 -118.5592
15.307465 82.532 -118.9289
15.418389 82.564 -119.2961
15.530117 82.595 -119.6603
15.642655 82.626 -120.0212
15.756008 82.656 -120.3783
15.870182 82.686 -120.7315
15.985184 82.715 -121.0807
16.101019 82.745 -121.4258
16.217694 82.774 -121.7670
16.335214 82.804 -122.1047
16.453586 82.834 -122.4392
16.572815 82.864 -122.7713
16.692909 82.894 -123.1018
16.813872 82.925 -123.4316
16.935713 82.957 -123.7617
17.058436 82.988 -124.0930
17.182048 83.020 -124.4267
17.306556 83.052 -124.7634
17.431967 83.084 -125.1039
17.558286 83.116 -125.4485
17.685521 83.147 -125.7972
17.813677 83.178 -126.1497
17.942762 83.208 -126.5054
18.072783 83.236 -126.8630
18.203746 83.264 -127.2213
18.335658 83.290 -127.5787
18.468526 83.315 -127.9335
18.602356 83.339 -128.2841
18.737156 83.362 -128.6290
18.872934 83.384 -128.9674
19.009695 83.405 -129.2984
19.147447 83.426 -129.6219
19.286197 83.447 -129.9385
19.425953 83.469 -130.2488
19.566721 83.491 -130.5542
19.708510 83.513 -130.8560
19.851326 83.535 -131.1556
19.995177 83.558 -131.4542
20.140070 83.581 -131.7525
20.286013 83.604 -132.0506
20.433014 83.627 -132.3482
20.581080 83.649 -132.6442
20.730219 83.670 -132.9374
20.880439 83.691 -133.2262
21.031747 83.712 -133.5092
21.184152 83.734 -133.7855
21.337661 83.755 -134.0551
21.492282 83.778 -134.3187
21.648024 83.801 -134.5783
21.804895 83.827 -134.8369
21.962902 83.854 -135.0982
22.122054 83.882 -135.3661
22.282360 83.912 -135.6444
22.443827 83.943 -135.9360
22.606464 83.974 -136.2427
22.770280 84.004 -136.5645
22.935283 84.032 -136.8995
23.101481 84.058 -137.2444
23.268884 84.081 -137.5942
23.437500 84.101 -137.9435
23.607338 84.119 -138.2867
23.778406 84.135 -138.6188
23.950714 84.149 -138.9367
24.124271 84.163 -139.2389
24.299086 84.178 -139.5264
24.475167 84.194 -139.8020
24.652524 84.212 -140.0703
24.831166 84.232 -140.3367
25.011103 84.254 -140.6066
25.192344 84.277 -140.8842
25.374898 84.301 -141.1722
25.558775 84.324 -141.4709
25.743984 84.347 -141.7787
25.930536 84.368 -142.0920
26.118439 84.387 -142.4064
26.307704 84.405 -142.7170
26.498341 84.421 -143.0199
26.690359 84.436 -143.3125
26.883768 84.452 -143.5943
27.078579 84.468 -143.8663
27.274801 84.486 -144.1314
27.472446 84.505 -144.3931
27.671522 84.525 -144.6551
27.872042 84.545 -144.9201
28.074014 84.566 -145.1896
28.277450 84.587 -145.4634
28.482360 84.607 -145.7397
28.688755 84.627 -146.0157
28.896645 84.645 -146.2885
29.106042 84.663 -146.5554
29.316957 84.680 -146.8147
29.529400 84.698 -147.0661
29.743382 84.716 -147.3106
29.958915 84.735 -147.5503
30.176009 84.755 -147.7879
30.394677 84.776 -148.0260
30.614929 84.798 -148.2669
30.836778 84.820 -148.5116
31.060234 84.842 -148.7605
31.285309 84.863 -149.0127
31.512015 84.884 -149.2672
31.740364 84.904 -149.5223
31.970368 84.924 -149.7766
32.202039 84.943 -150.0291
32.435388 84.962 -150.2790
32.670428 84.980 -150.5260
32.907171 84.998 -150.7700
33.145630 85.016 -151.0110
33.385817 85.034 -151.2494
33.627745 85.052 -151.4853
33.871425 85.071 -151.7194
34.116871 85.090 -151.9523
34.364096 85.109 -152.1850
34.613113 85.129 -152.4190
34.863934 85.150 -152.6554
35.116572 85.170 -152.8954
35.371041 85.191 -153.1398
35.627354 85.212 -153.3885
35.885525 85.232 -153.6408
36.145566 85.251 -153.8952
36.407492 85.270 -154.1498
36.671316 85.289 -154.4029
36.937051 85.307 -154.6530
37.204712 85.325 -154.8995
37.474313 85.344 -155.1427
37.745867 85.363 -155.3837
38.019389 85.383 -155.6241
38.294893 85.403 -155.8652
38.572394 85.423 -156.1076
38.851905 85.444 -156.3510
39.133442 85.464 -156.5943
39.417019 85.484 -156.8359
39.702651 85.505 -157.0746
39.990353 85.526 -157.3100
40.280140 85.547 -157.5432
40.572026 85.570 -157.7763
40.866028 85.593 -158.0117
41.162160 85.617 -158.2516
41.460438 85.641 -158.4966
41.760877 85.665 -158.7466
42.063494 85.689 -159.0004
42.368303 85.713 -159.2572
42.675322 85.736 -159.5168
42.984565 85.759 -159.7806
43.296048 85.782 -160.0497
43.609789 85.804 -160.3245
43.925804 85.825 -160.6029
44.244108 85.843 -160.8801
44.564719 85.860 -161.1501
44.887654 85.876 -161.4074
45.212928 85.892 -161.6500
45.540560 85.910 -161.8805
45.870565 85.930 -162.1055
46.202962 85.953 -162.3340
46.537768 85.978 -162.5737
46.875000 86.003 -162.8286
47.214676 86.029 -163.0982
47.556813 86.053 -163.3786
47.901429 86.075 -163.6647
48.248542 86.097 -163.9522
48.598171 86.117 -164.2389
48.950334 86.137 -164.5245
49.305048 86.157 -164.8098
49.662333 86.177 -165.0956
50.022206 86.196 -165.3823
50.384688 86.214 -165.6702
50.749796 86.232 -165.9592
51.117550 86.250 -166.2491
51.487969 86.267 -166.5402
51.861072 86.284 -166.8323
52.236879 86.300 -167.1258
52.615409 86.317 -167.4212
52.996681 86.333 -167.7195
53.380717 86.349 -168.0221
53.767536 86.366 -168.3303
54.157158 86.382 -168.6449
54.549603 86.398 -168.9663
54.944892 86.414 -169.2940
55.343045 86.429 -169.6275
55.744084 86.444 -169.9655
56.148028 86.459 -170.3070
56.554900 86.473 -170.6506
56.964720 86.487 -170.9953
57.377510 86.501 -171.3409
57.793291 86.515 -171.6884
58.212085 86.530 -172.0384
58.633914 86.543 -172.3913
59.058799 86.556 -172.7463
59.486764 86.568 -173.1015
59.917829 86.579 -173.4555
60.352019 86.589 -173.8080
60.789354 86.598 -174.1599
61.229859 86.606 -174.5125
61.673556 86.614 -174.8679
62.120468 86.619 -175.2279
62.570618 86.624 -175.5947
63.024031 86.627 -175.9696
63.480729 86.628 -176.3527
63.940736 86.627 -176.7433
64.404077 86.624 -177.1409
64.870776 86.620 -177.5452
65.340856 86.613 -177.9530
65.814343 86.604 -178.3574
66.291261 86.594 -178.7488
66.771635 86.585 -179.1229
67.255489 86.580 -179.4864
67.742850 86.580 -179.8557
68.233743 86.583 179.7525
68.728193 86.588 179.3316
69.226226 86.591 178.8873
69.727867 86.592 178.4320
70.233144 86.590 177.9777
70.742083 86.586 177.5315
71.254709 86.580 177.0966
71.771050 86.574 176.6731
72.291132 86.568 176.2582
72.814984 86.561 175.8470
73.342631 86.554 175.4351
73.874102 86.546 175.0203
74.409424 86.537 174.6024
74.948626 86.526 174.1818
75.491734 86.513 173.7596
76.038779 86.500 173.3369
76.589787 86.484 172.9144
77.144788 86.468 172.4922
77.703811 86.451 172.0694
78.266885 86.434 171.6451
78.834039 86.415 171.2190
79.405303 86.396 170.7919
79.980706 86.376 170.3652
80.560280 86.354 169.9410
81.144053 86.331 169.5213
81.732056 86.308 169.1074
82.324320 86.284 168.6985
82.920876 86.260 168.2927
83.521755 86.235 167.8880
84.126988 86.210 167.4835
84.736607 86.184 167.0792
85.350643 86.157 166.6757
85.969129 86.129 166.2728
86.592097 86.101 165.8695
87.219579 86.073 165.4646
87.851608 86.043 165.0570
88.488217 86.013 164.6462
89.129439 85.980 164.2338
89.775308 85.946 163.8226
90.425856 85.911 163.4163
91.081119 85.874 163.0172
