* Measurement data measured by REW V5.31.3
* Source: Headset (CX31993 HIFI AUDIO), MICROPHONE (Master Volume), R, volume: 0.400
* Format: 256k Log Swept Sine, 1 sweep at -11.9 dBFS with no timing reference
* Dated: 06 25, 25 12:02:24 PM
* REW Settings:
*  C-weighting compensation: Off
*  Target level: 75.0 dB
* Note: 
* Measurement: Xiaomi Buds 6 Play vol R
* Smoothing: 1/12 octave
* Frequency Step: 96 ppo
* Start Frequency: 0.36621094 Hz
*
* Freq(Hz) SPL(dB) Phase(degrees)
0.366211 30.919 -102.9110
0.368865 30.896 -102.9063
0.371538 30.862 -102.9003
0.374230 30.820 -102.8946
0.376942 30.771 -102.8907
0.379673 30.720 -102.8897
0.382424 30.666 -102.8922
0.385196 30.610 -102.8988
0.387987 30.554 -102.9097
0.390798 30.497 -102.9250
0.393630 30.439 -102.9448
0.396483 30.380 -102.9691
0.399356 30.322 -102.9980
0.402250 30.262 -103.0314
0.405165 30.203 -103.0692
0.408101 30.143 -103.1116
0.411058 30.082 -103.1584
0.414037 30.021 -103.2096
0.417037 29.960 -103.2651
0.420059 29.898 -103.3249
0.423103 29.836 -103.3890
0.426169 29.773 -103.4572
0.429257 29.710 -103.5295
0.432368 29.646 -103.6059
0.435501 29.582 -103.6861
0.438656 29.517 -103.7703
0.441835 29.452 -103.8581
0.445037 29.387 -103.9496
0.448262 29.321 -104.0446
0.451510 29.254 -104.1430
0.454782 29.187 -104.2447
0.458077 29.120 -104.3495
0.461397 29.052 -104.4573
0.464740 28.983 -104.5679
0.468108 28.914 -104.6812
0.471500 28.845 -104.7971
0.474917 28.775 -104.9152
0.478358 28.705 -105.0354
0.481825 28.634 -105.1576
0.485316 28.562 -105.2815
0.488833 28.490 -105.4069
0.492375 28.418 -105.5336
0.495943 28.345 -105.6612
0.499537 28.271 -105.7896
0.503157 28.197 -105.9185
0.506803 28.122 -106.0476
0.510475 28.047 -106.1765
0.514175 27.971 -106.3050
0.517900 27.895 -106.4327
0.521653 27.818 -106.5593
0.525434 27.741 -106.6844
0.529241 27.663 -106.8076
0.533076 27.585 -106.9285
0.536939 27.506 -107.0465
0.540830 27.426 -107.1614
0.544749 27.346 -107.2724
0.548696 27.265 -107.3792
0.552673 27.184 -107.4811
0.556677 27.102 -107.5776
0.560711 27.019 -107.6679
0.564774 26.936 -107.7514
0.568867 26.852 -107.8273
0.572989 26.768 -107.8949
0.577141 26.683 -107.9531
0.581324 26.597 -108.0011
0.585536 26.511 -108.0378
0.589779 26.424 -108.0621
0.594053 26.337 -108.0727
0.598358 26.249 -108.0684
0.602694 26.160 -108.0475
0.607061 26.071 -108.0084
0.611460 25.981 -107.9493
0.615891 25.890 -107.8682
0.620354 25.799 -107.7627
0.624849 25.707 -107.6303
0.629377 25.614 -107.4681
0.633938 25.521 -107.2728
0.638532 25.427 -107.0407
0.643159 25.332 -106.7676
0.647819 25.237 -106.4486
0.652514 25.141 -106.0780
0.657242 25.044 -105.6495
0.662005 24.946 -105.1555
0.666802 24.848 -104.5871
0.671634 24.749 -103.9339
0.676501 24.650 -103.1836
0.681403 24.550 -102.3217
0.686341 24.449 -101.3307
0.691314 24.348 -100.1898
0.696324 24.248 -98.8738
0.701370 24.148 -97.3528
0.706452 24.050 -95.5908
0.711571 23.957 -93.5451
0.716728 23.873 -91.1660
0.721921 23.803 -88.3963
0.727153 23.755 -85.1731
0.732422 23.736 -81.4292
0.737729 23.751 -77.0967
0.743075 23.800 -72.1114
0.748460 23.879 -66.4221
0.753883 23.981 -60.0095
0.759346 24.104 -52.9127
0.764849 24.243 -45.2543
0.770391 24.397 -37.2502
0.775974 24.565 -29.1861
0.781597 24.746 -21.3619
0.787261 24.940 -14.0295
0.792966 25.145 -7.3521
0.798712 25.362 -1.3995
0.804500 25.591 3.8322
0.810329 25.832 8.3924
0.816201 26.083 12.3521
0.822116 26.346 15.7879
0.828073 26.620 18.7727
0.834074 26.904 21.3719
0.840118 27.198 23.6419
0.846206 27.503 25.6307
0.852338 27.817 27.3784
0.858514 28.141 28.9184
0.864735 28.473 30.2788
0.871001 28.815 31.4828
0.877313 29.164 32.5499
0.883670 29.522 33.4964
0.890074 29.888 34.3362
0.896524 30.260 35.0810
0.903020 30.639 35.7406
0.909564 31.024 36.3236
0.916155 31.415 36.8373
0.922794 31.812 37.2881
0.929481 32.212 37.6812
0.936216 32.617 38.0216
0.943000 33.026 38.3134
0.949834 33.437 38.5602
0.956717 33.850 38.7654
0.963649 34.265 38.9316
0.970632 34.681 39.0615
0.977666 35.097 39.1574
0.984750 35.512 39.2212
0.991886 35.926 39.2549
0.999074 36.337 39.2600
1.006314 36.746 39.2382
1.013606 37.150 39.1907
1.020951 37.550 39.1188
1.028349 37.944 39.0237
1.035801 38.332 38.9065
1.043307 38.712 38.7683
1.050867 39.084 38.6103
1.058482 39.446 38.4337
1.066152 39.799 38.2398
1.073878 40.141 38.0306
1.081660 40.474 37.8084
1.089498 40.796 37.5763
1.097393 41.110 37.3379
1.105345 41.416 37.0975
1.113355 41.716 36.8587
1.121423 42.011 36.6245
1.129549 42.301 36.3964
1.137734 42.589 36.1749
1.145979 42.872 35.9601
1.154283 43.153 35.7512
1.162647 43.431 35.5476
1.171072 43.707 35.3483
1.179558 43.979 35.1525
1.188106 44.249 34.9591
1.196715 44.517 34.7674
1.205387 44.782 34.5765
1.214122 45.044 34.3856
1.222920 45.304 34.1941
1.231782 45.562 34.0013
1.240708 45.817 33.8065
1.249699 46.070 33.6091
1.258754 46.321 33.4087
1.267876 46.570 33.2045
1.277063 46.817 32.9962
1.286318 47.063 32.7833
1.295639 47.306 32.5653
1.305027 47.548 32.3419
1.314484 47.788 32.1125
1.324009 48.027 31.8769
1.333604 48.265 31.6346
1.343268 48.501 31.3852
1.353002 48.737 31.1286
1.362806 48.972 30.8643
1.372681 49.206 30.5920
1.382628 49.439 30.3114
1.392647 49.672 30.0224
1.402739 49.905 29.7246
1.412904 50.138 29.4182
1.423142 50.371 29.1031
1.433455 50.603 28.7797
1.443843 50.835 28.4488
1.454305 51.067 28.1115
1.464844 51.298 27.7694
1.475459 51.527 27.4246
1.486150 51.754 27.0789
1.496920 51.979 26.7338
1.507767 52.201 26.3900
1.518693 52.421 26.0479
1.529698 52.637 25.7077
1.540783 52.851 25.3689
1.551948 53.062 25.0314
1.563194 53.270 24.6946
1.574521 53.476 24.3581
1.585931 53.679 24.0214
1.597423 53.880 23.6841
1.608999 54.078 23.3455
1.620658 54.275 23.0054
1.632402 54.469 22.6631
1.644232 54.662 22.3183
1.656146 54.853 21.9705
1.668147 55.043 21.6192
1.680235 55.231 21.2642
1.692411 55.418 20.9048
1.704675 55.604 20.5408
1.717028 55.790 20.1717
1.729470 55.975 19.7972
1.742003 56.160 19.4169
1.754626 56.345 19.0305
1.767341 56.529 18.6376
1.780147 56.714 18.2383
1.793047 56.900 17.8323
1.806040 57.085 17.4199
1.819128 57.271 17.0015
1.832310 57.457 16.5779
1.845587 57.642 16.1500
1.858961 57.826 15.7187
1.872432 58.009 15.2851
1.886001 58.190 14.8496
1.899667 58.370 14.4129
1.913433 58.548 13.9751
1.927299 58.725 13.5364
1.941265 58.901 13.0970
1.955332 59.074 12.6569
1.969501 59.247 12.2159
1.983773 59.418 11.7742
1.998148 59.588 11.3315
2.012627 59.757 10.8878
2.027212 59.924 10.4430
2.041902 60.091 9.9968
2.056698 60.257 9.5492
2.071602 60.422 9.0998
2.086614 60.586 8.6486
2.101734 60.750 8.1952
2.116964 60.914 7.7394
2.132304 61.077 7.2810
2.147756 61.239 6.8197
2.163320 61.401 6.3554
2.178996 61.563 5.8878
2.194786 61.725 5.4170
2.210690 61.885 4.9429
2.226710 62.045 4.4658
2.242845 62.203 3.9858
2.259098 62.361 3.5034
2.275468 62.517 3.0189
2.291957 62.671 2.5325
2.308566 62.825 2.0447
2.325295 62.977 1.5556
2.342145 63.128 1.0655
2.359117 63.278 0.5747
2.376212 63.427 0.0833
2.393431 63.575 -0.4085
2.410775 63.722 -0.9007
2.428244 63.869 -1.3930
2.445840 64.014 -1.8856
2.463564 64.159 -2.3783
2.481416 64.304 -2.8712
2.499397 64.447 -3.3645
2.517509 64.591 -3.8584
2.535752 64.733 -4.3530
2.554127 64.875 -4.8488
2.572635 65.016 -5.3463
2.591277 65.157 -5.8456
2.610055 65.296 -6.3471
2.628968 65.434 -6.8506
2.648019 65.571 -7.3561
2.667208 65.707 -7.8633
2.686535 65.842 -8.3717
2.706003 65.975 -8.8809
2.725612 66.108 -9.3906
2.745363 66.240 -9.9004
2.765257 66.371 -10.4097
2.785295 66.501 -10.9184
2.805478 66.630 -11.4262
2.825808 66.758 -11.9326
2.846285 66.886 -12.4377
2.866910 67.013 -12.9413
2.887685 67.140 -13.4436
2.908611 67.266 -13.9447
2.929688 67.392 -14.4452
2.950917 67.516 -14.9456
2.972301 67.640 -15.4462
2.993839 67.763 -15.9475
3.015534 67.884 -16.4494
3.037386 68.005 -16.9519
3.059396 68.125 -17.4545
3.081565 68.244 -17.9571
3.103896 68.361 -18.4591
3.126388 68.478 -18.9601
3.149043 68.595 -19.4598
3.171862 68.710 -19.9578
3.194847 68.825 -20.4537
3.217998 68.940 -20.9473
3.241317 69.054 -21.4385
3.264805 69.168 -21.9273
3.288463 69.281 -22.4141
3.312293 69.393 -22.8992
3.336295 69.504 -23.3831
3.360471 69.615 -23.8660
3.384822 69.725 -24.3482
3.409350 69.834 -24.8297
3.434056 69.943 -25.3103
3.458940 70.051 -25.7899
3.484005 70.158 -26.2680
3.509252 70.264 -26.7445
3.534681 70.370 -27.2190
3.560295 70.476 -27.6914
3.586094 70.581 -28.1613
3.612081 70.685 -28.6286
3.638255 70.790 -29.0935
3.664620 70.894 -29.5560
3.691175 70.997 -30.0163
3.717923 71.101 -30.4749
3.744864 71.203 -30.9318
3.772001 71.305 -31.3873
3.799335 71.406 -31.8413
3.826866 71.507 -32.2939
3.854597 71.608 -32.7450
3.882529 71.708 -33.1946
3.910664 71.808 -33.6425
3.939002 71.907 -34.0887
3.967546 72.007 -34.5332
3.996296 72.106 -34.9758
4.025255 72.205 -35.4168
4.054423 72.303 -35.8562
4.083804 72.401 -36.2941
4.113396 72.499 -36.7306
4.143204 72.597 -37.1660
4.173227 72.694 -37.6003
4.203468 72.791 -38.0336
4.233928 72.888 -38.4659
4.264609 72.984 -38.8974
4.295512 73.081 -39.3282
4.326639 73.177 -39.7582
4.357992 73.273 -40.1875
4.389572 73.368 -40.6163
4.421380 73.464 -41.0446
4.453419 73.559 -41.4724
4.485691 73.654 -41.8999
4.518196 73.749 -42.3271
4.550936 73.843 -42.7540
4.583914 73.938 -43.1807
4.617131 74.031 -43.6072
4.650589 74.125 -44.0338
4.684289 74.219 -44.4604
4.718233 74.312 -44.8871
4.752424 74.405 -45.3140
4.786862 74.497 -45.7413
4.821549 74.590 -46.1690
4.856488 74.682 -46.5970
4.891680 74.774 -47.0255
4.927127 74.865 -47.4543
4.962831 74.956 -47.8833
4.998794 75.047 -48.3127
5.035017 75.137 -48.7422
5.071503 75.227 -49.1720
5.108253 75.317 -49.6021
5.145270 75.407 -50.0325
5.182555 75.495 -50.4635
5.220110 75.584 -50.8949
5.257937 75.672 -51.3268
5.296038 75.760 -51.7591
5.334415 75.847 -52.1915
5.373071 75.934 -52.6239
5.412006 76.020 -53.0563
5.451224 76.107 -53.4885
5.490725 76.192 -53.9207
5.530514 76.277 -54.3527
5.570590 76.362 -54.7849
5.610957 76.447 -55.2170
5.651616 76.531 -55.6490
5.692570 76.614 -56.0809
5.733821 76.697 -56.5125
5.775370 76.780 -56.9437
5.817221 76.862 -57.3743
5.859375 76.944 -57.8044
5.901834 77.026 -58.2339
5.944602 77.107 -58.6631
5.987679 77.187 -59.0919
6.031068 77.268 -59.5202
6.074771 77.348 -59.9482
6.118792 77.428 -60.3756
6.163131 77.507 -60.8026
6.207792 77.586 -61.2290
6.252776 77.665 -61.6549
6.298086 77.743 -62.0804
6.343725 77.821 -62.5055
6.389694 77.899 -62.9303
6.435996 77.977 -63.3549
6.482634 78.054 -63.7793
6.529610 78.131 -64.2035
6.576926 78.207 -64.6276
6.624585 78.284 -65.0516
6.672590 78.360 -65.4756
6.720942 78.436 -65.8997
6.769645 78.511 -66.3239
6.818700 78.586 -66.7483
6.868111 78.661 -67.1728
6.917881 78.736 -67.5975
6.968010 78.810 -68.0226
7.018504 78.884 -68.4479
7.069362 78.957 -68.8737
7.120590 79.031 -69.2997
7.172189 79.103 -69.7260
7.224161 79.176 -70.1526
7.276511 79.248 -70.5794
7.329239 79.320 -71.0064
7.382350 79.391 -71.4335
7.435845 79.462 -71.8609
7.489729 79.532 -72.2884
7.544002 79.602 -72.7158
7.598669 79.672 -73.1432
7.653732 79.741 -73.5702
7.709194 79.810 -73.9970
7.765058 79.878 -74.4235
7.821327 79.946 -74.8496
7.878004 80.013 -75.2753
7.935091 80.080 -75.7004
7.992592 80.147 -76.1249
8.050510 80.213 -76.5487
8.108847 80.279 -76.9718
8.167607 80.345 -77.3942
8.226793 80.410 -77.8159
8.286408 80.475 -78.2370
8.346454 80.540 -78.6573
8.406936 80.604 -79.0771
8.467856 80.668 -79.4962
8.529218 80.732 -79.9149
8.591024 80.796 -80.3331
8.653278 80.859 -80.7510
8.715983 80.922 -81.1687
8.779143 80.985 -81.5864
8.842760 81.047 -82.0040
8.906839 81.110 -82.4218
8.971381 81.172 -82.8397
9.036392 81.234 -83.2579
9.101873 81.295 -83.6764
9.167829 81.356 -84.0954
9.234263 81.417 -84.5148
9.301178 81.477 -84.9347
9.368578 81.537 -85.3550
9.436467 81.597 -85.7756
9.504847 81.656 -86.1964
9.573723 81.715 -86.6174
9.643099 81.773 -87.0385
9.712976 81.831 -87.4594
9.783361 81.888 -87.8801
9.854255 81.945 -88.3001
9.925663 82.001 -88.7194
9.997588 82.057 -89.1378
10.070035 82.113 -89.5551
10.143007 82.167 -89.9711
10.216507 82.222 -90.3856
10.290540 82.276 -90.7985
10.365109 82.330 -91.2096
10.440219 82.383 -91.6190
10.515873 82.436 -92.0266
10.592076 82.489 -92.4324
10.668830 82.542 -92.8366
10.746141 82.594 -93.2392
10.824012 82.646 -93.6404
10.902447 82.699 -94.0406
10.981451 82.751 -94.4399
11.061027 82.803 -94.8387
11.141180 82.855 -95.2372
11.221913 82.907 -95.6357
11.303232 82.959 -96.0345
11.385140 83.010 -96.4339
11.467641 83.062 -96.8341
11.550741 83.113 -97.2353
11.634442 83.164 -97.6375
11.718750 83.215 -98.0407
11.803669 83.265 -98.4449
11.889203 83.315 -98.8499
11.975357 83.364 -99.2555
12.062136 83.412 -99.6612
12.149543 83.460 -100.0667
12.237583 83.508 -100.4715
12.326262 83.554 -100.8750
12.415583 83.600 -101.2768
12.505552 83.645 -101.6762
12.596172 83.690 -102.0728
12.687449 83.734 -102.4661
12.779387 83.778 -102.8556
12.871992 83.822 -103.2411
12.965268 83.865 -103.6224
13.059220 83.908 -103.9996
13.153852 83.951 -104.3727
13.249170 83.994 -104.7420
13.345179 84.038 -105.1080
13.441884 84.081 -105.4712
13.539289 84.126 -105.8325
13.637401 84.170 -106.1925
13.736223 84.215 -106.5522
13.835761 84.260 -106.9123
13.936021 84.306 -107.2739
14.037007 84.352 -107.6376
14.138725 84.398 -108.0042
14.241180 84.444 -108.3740
14.344377 84.491 -108.7475
14.448323 84.536 -109.1248
14.553021 84.582 -109.5057
14.658478 84.626 -109.8898
14.764700 84.670 -110.2766
14.871691 84.714 -110.6653
14.979457 84.756 -111.0549
15.088005 84.797 -111.4445
15.197339 84.837 -111.8328
15.307465 84.877 -112.2188
15.418389 84.915 -112.6015
15.530117 84.953 -112.9801
15.642655 84.990 -113.3538
15.756008 85.027 -113.7223
15.870182 85.063 -114.0855
15.985184 85.100 -114.4436
16.101019 85.137 -114.7973
16.217694 85.174 -115.1473
16.335214 85.212 -115.4948
16.453586 85.250 -115.8412
16.572815 85.288 -116.1877
16.692909 85.327 -116.5358
16.813872 85.366 -116.8867
16.935713 85.406 -117.2413
17.058436 85.445 -117.6004
17.182048 85.484 -117.9642
17.306556 85.522 -118.3324
17.431967 85.560 -118.7044
17.558286 85.596 -119.0791
17.685521 85.631 -119.4550
17.813677 85.665 -119.8304
17.942762 85.697 -120.2035
18.072783 85.728 -120.5724
18.203746 85.758 -120.9357
18.335658 85.788 -121.2921
18.468526 85.817 -121.6410
18.602356 85.846 -121.9824
18.737156 85.875 -122.3168
18.872934 85.905 -122.6456
19.009695 85.935 -122.9705
19.147447 85.966 -123.2937
19.286197 85.998 -123.6174
19.425953 86.031 -123.9439
19.566721 86.064 -124.2750
19.708510 86.097 -124.6119
19.851326 86.129 -124.9550
19.995177 86.161 -125.3038
20.140070 86.192 -125.6571
20.286013 86.222 -126.0126
20.433014 86.249 -126.3678
20.581080 86.276 -126.7196
20.730219 86.301 -127.0652
20.880439 86.325 -127.4024
21.031747 86.348 -127.7294
21.184152 86.371 -128.0456
21.337661 86.395 -128.3518
21.492282 86.420 -128.6497
21.648024 86.447 -128.9422
21.804895 86.475 -129.2328
21.962902 86.505 -129.5254
22.122054 86.536 -129.8237
22.282360 86.568 -130.1308
22.443827 86.601 -130.4486
22.606464 86.633 -130.7780
22.770280 86.665 -131.1181
22.935283 86.695 -131.4671
23.101481 86.723 -131.8218
23.268884 86.750 -132.1784
23.437500 86.774 -132.5330
23.607338 86.796 -132.8817
23.778406 86.817 -133.2216
23.950714 86.837 -133.5503
24.124271 86.856 -133.8670
24.299086 86.876 -134.1719
24.475167 86.896 -134.4664
24.652524 86.917 -134.7527
24.831166 86.939 -135.0333
25.011103 86.963 -135.3114
25.192344 86.988 -135.5896
25.374898 87.014 -135.8702
25.558775 87.040 -136.1550
25.743984 87.067 -136.4451
25.930536 87.094 -136.7409
26.118439 87.120 -137.0420
26.307704 87.146 -137.3475
26.498341 87.171 -137.6562
26.690359 87.195 -137.9666
26.883768 87.218 -138.2769
27.078579 87.240 -138.5855
27.274801 87.262 -138.8910
27.472446 87.282 -139.1924
27.671522 87.302 -139.4890
27.872042 87.322 -139.7808
28.074014 87.341 -140.0683
28.277450 87.360 -140.3522
28.482360 87.380 -140.6333
28.688755 87.400 -140.9124
28.896645 87.419 -141.1903
29.106042 87.439 -141.4669
29.316957 87.458 -141.7424
29.529400 87.478 -142.0163
29.743382 87.497 -142.2882
29.958915 87.516 -142.5580
30.176009 87.535 -142.8258
30.394677 87.555 -143.0922
30.614929 87.575 -143.3581
30.836778 87.595 -143.6246
31.060234 87.616 -143.8927
31.285309 87.636 -144.1628
31.512015 87.657 -144.4349
31.740364 87.677 -144.7082
31.970368 87.696 -144.9816
32.202039 87.716 -145.2536
32.435388 87.735 -145.5228
32.670428 87.754 -145.7881
32.907171 87.773 -146.0493
33.145630 87.792 -146.3070
33.385817 87.812 -146.5623
33.627745 87.834 -146.8170
33.871425 87.855 -147.0731
34.116871 87.878 -147.3324
34.364096 87.900 -147.5961
34.613113 87.923 -147.8648
34.863934 87.945 -148.1380
35.116572 87.967 -148.4142
35.371041 87.988 -148.6914
35.627354 88.007 -148.9669
35.885525 88.026 -149.2386
36.145566 88.045 -149.5046
36.407492 88.064 -149.7646
36.671316 88.083 -150.0197
36.937051 88.103 -150.2719
37.204712 88.123 -150.5243
37.474313 88.145 -150.7797
37.745867 88.167 -151.0404
38.019389 88.188 -151.3069
38.294893 88.210 -151.5785
38.572394 88.230 -151.8528
38.851905 88.250 -152.1270
39.133442 88.269 -152.3987
39.417019 88.288 -152.6663
39.702651 88.308 -152.9301
39.990353 88.328 -153.1919
40.280140 88.349 -153.4545
40.572026 88.371 -153.7207
40.866028 88.394 -153.9924
41.162160 88.416 -154.2700
41.460438 88.439 -154.5523
41.760877 88.461 -154.8374
42.063494 88.483 -155.1235
42.368303 88.505 -155.4100
42.675322 88.528 -155.6979
42.984565 88.551 -155.9891
43.296048 88.574 -156.2858
43.609789 88.597 -156.5887
43.925804 88.618 -156.8963
44.244108 88.639 -157.2052
44.564719 88.658 -157.5108
44.887654 88.676 -157.8096
45.212928 88.694 -158.1001
45.540560 88.713 -158.3836
45.870565 88.732 -158.6635
46.202962 88.753 -158.9442
46.537768 88.774 -159.2292
46.875000 88.796 -159.5203
47.214676 88.817 -159.8175
47.556813 88.837 -160.1191
47.901429 88.857 -160.4231
48.248542 88.876 -160.7277
48.598171 88.895 -161.0318
48.950334 88.913 -161.3349
49.305048 88.932 -161.6375
49.662333 88.950 -161.9404
50.022206 88.968 -162.2449
50.384688 88.986 -162.5520
50.749796 89.005 -162.8620
51.117550 89.022 -163.1747
51.487969 89.040 -163.4893
51.861072 89.057 -163.8050
52.236879 89.074 -164.1214
52.615409 89.090 -164.4389
52.996681 89.107 -164.7578
53.380717 89.123 -165.0785
53.767536 89.140 -165.4008
54.157158 89.156 -165.7242
54.549603 89.172 -166.0482
54.944892 89.188 -166.3730
55.343045 89.204 -166.6988
55.744084 89.220 -167.0258
56.148028 89.236 -167.3538
56.554900 89.252 -167.6822
56.964720 89.267 -168.0103
57.377510 89.282 -168.3378
57.793291 89.298 -168.6649
58.212085 89.313 -168.9921
58.633914 89.327 -169.3194
59.058799 89.341 -169.6466
59.486764 89.353 -169.9731
59.917829 89.365 -170.2981
60.352019 89.376 -170.6217
60.789354 89.386 -170.9447
61.229859 89.395 -171.2683
61.673556 89.403 -171.5936
62.120468 89.410 -171.9216
62.570618 89.416 -172.2531
63.024031 89.421 -172.5888
63.480729 89.425 -172.9301
63.940736 89.428 -173.2785
64.404077 89.430 -173.6356
64.870776 89.431 -174.0017
65.340856 89.430 -174.3745
65.814343 89.428 -174.7473
66.291261 89.424 -175.1117
66.771635 89.419 -175.4606
67.255489 89.417 -175.7934
67.742850 89.416 -176.1165
68.233743 89.419 -176.4392
68.728193 89.423 -176.7685
69.226226 89.428 -177.1054
69.727867 89.433 -177.4469
70.233144 89.436 -177.7899
70.742083 89.438 -178.1331
71.254709 89.439 -178.4763
71.771050 89.438 -178.8186
72.291132 89.434 -179.1581
72.814984 89.429 -179.4935
73.342631 89.421 -179.8247
73.874102 89.413 179.8470
74.409424 89.403 179.5200
74.948626 89.392 179.1930
75.491734 89.380 178.8646
76.038779 89.368 178.5335
76.589787 89.355 178.1988
77.144788 89.342 177.8611
77.703811 89.328 177.5220
78.266885 89.314 177.1837
78.834039 89.299 176.8480
79.405303 89.283 176.5159
79.980706 89.267 176.1879
80.560280 89.250 175.8641
81.144053 89.233 175.5444
81.732056 89.214 175.2288
82.324320 89.195 174.9173
82.920876 89.174 174.6098
83.521755 89.153 174.3058
84.126988 89.131 174.0048
84.736607 89.109 173.7066
85.350643 89.086 173.4111
85.969129 89.063 173.1183
86.592097 89.039 172.8273
87.219579 89.016 172.5370
87.851608 88.992 172.2464
88.488217 88.968 171.9554
89.129439 88.944 171.6652
89.775308 88.918 171.3773
