* Measurement data measured by REW V5.31.3
* Source: Headset (CX31993 HIFI AUDIO), MICROPHONE (Master Volume), R, volume: 0.400
* Format: 256k Log Swept Sine, 1 sweep at -11.9 dBFS with no timing reference
* Dated: 06 25, 25 12:00:57 PM
* REW Settings:
*  C-weighting compensation: Off
*  Target level: 75.0 dB
* Note: 
* Measurement: Xiaomi Buds 6 Play vocal R
* Smoothing: 1/12 octave
* Frequency Step: 96 ppo
* Start Frequency: 0.36621094 Hz
*
* Freq(Hz) SPL(dB) Phase(degrees)
0.366211 35.031 158.0104
0.368865 35.035 157.9265
0.371538 35.042 157.8017
0.374230 35.050 157.6465
0.376942 35.059 157.4698
0.379673 35.069 157.2782
0.382424 35.080 157.0762
0.385196 35.090 156.8664
0.387987 35.101 156.6504
0.390798 35.112 156.4289
0.393630 35.123 156.2024
0.396483 35.134 155.9711
0.399356 35.146 155.7350
0.402250 35.157 155.4941
0.405165 35.168 155.2484
0.408101 35.180 154.9978
0.411058 35.192 154.7423
0.414037 35.203 154.4818
0.417037 35.215 154.2162
0.420059 35.227 153.9453
0.423103 35.239 153.6693
0.426169 35.251 153.3878
0.429257 35.263 153.1010
0.432368 35.275 152.8086
0.435501 35.287 152.5107
0.438656 35.300 152.2070
0.441835 35.312 151.8976
0.445037 35.325 151.5822
0.448262 35.338 151.2609
0.451510 35.350 150.9336
0.454782 35.363 150.6001
0.458077 35.376 150.2603
0.461397 35.389 149.9142
0.464740 35.402 149.5616
0.468108 35.415 149.2024
0.471500 35.429 148.8366
0.474917 35.442 148.4641
0.478358 35.456 148.0846
0.481825 35.469 147.6982
0.485316 35.483 147.3046
0.488833 35.497 146.9039
0.492375 35.511 146.4958
0.495943 35.524 146.0803
0.499537 35.539 145.6572
0.503157 35.553 145.2265
0.506803 35.567 144.7879
0.510475 35.581 144.3414
0.514175 35.596 143.8869
0.517900 35.611 143.4241
0.521653 35.625 142.9531
0.525434 35.640 142.4737
0.529241 35.655 141.9856
0.533076 35.670 141.4889
0.536939 35.685 140.9833
0.540830 35.701 140.4688
0.544749 35.716 139.9451
0.548696 35.731 139.4121
0.552673 35.747 138.8698
0.556677 35.763 138.3179
0.560711 35.779 137.7564
0.564774 35.794 137.1850
0.568867 35.810 136.6037
0.572989 35.827 136.0122
0.577141 35.843 135.4105
0.581324 35.859 134.7984
0.585536 35.876 134.1757
0.589779 35.893 133.5424
0.594053 35.909 132.8982
0.598358 35.926 132.2431
0.602694 35.943 131.5769
0.607061 35.960 130.8994
0.611460 35.978 130.2105
0.615891 35.995 129.5102
0.620354 36.012 128.7982
0.624849 36.030 128.0745
0.629377 36.048 127.3390
0.633938 36.066 126.5914
0.638532 36.084 125.8318
0.643159 36.102 125.0601
0.647819 36.120 124.2761
0.652514 36.139 123.4798
0.657242 36.157 122.6711
0.662005 36.176 121.8500
0.666802 36.195 121.0164
0.671634 36.214 120.1703
0.676501 36.233 119.3117
0.681403 36.252 118.4406
0.686341 36.271 117.5569
0.691314 36.291 116.6609
0.696324 36.311 115.7525
0.701370 36.332 114.8319
0.706452 36.354 113.8993
0.711571 36.377 112.9550
0.716728 36.403 111.9996
0.721921 36.433 111.0338
0.727153 36.468 110.0589
0.732422 36.511 109.0762
0.737729 36.562 108.0878
0.743075 36.621 107.0955
0.748460 36.687 106.1013
0.753883 36.759 105.1067
0.759346 36.836 104.1131
0.764849 36.917 103.1216
0.770391 37.002 102.1331
0.775974 37.090 101.1485
0.781597 37.181 100.1684
0.787261 37.276 99.1935
0.792966 37.373 98.2244
0.798712 37.474 97.2616
0.804500 37.577 96.3055
0.810329 37.684 95.3566
0.816201 37.794 94.4152
0.822116 37.906 93.4816
0.828073 38.021 92.5561
0.834074 38.140 91.6389
0.840118 38.261 90.7301
0.846206 38.384 89.8300
0.852338 38.511 88.9385
0.858514 38.640 88.0556
0.864735 38.772 87.1815
0.871001 38.906 86.3160
0.877313 39.042 85.4591
0.883670 39.182 84.6106
0.890074 39.323 83.7705
0.896524 39.467 82.9386
0.903020 39.613 82.1147
0.909564 39.761 81.2986
0.916155 39.911 80.4901
0.922794 40.062 79.6889
0.929481 40.216 78.8948
0.936216 40.372 78.1075
0.943000 40.529 77.3266
0.949834 40.687 76.5520
0.956717 40.847 75.7833
0.963649 41.008 75.0202
0.970632 41.171 74.2623
0.977666 41.334 73.5094
0.984750 41.498 72.7611
0.991886 41.663 72.0171
0.999074 41.828 71.2771
1.006314 41.994 70.5406
1.013606 42.160 69.8075
1.020951 42.326 69.0773
1.028349 42.492 68.3498
1.035801 42.657 67.6247
1.043307 42.822 66.9016
1.050867 42.987 66.1803
1.058482 43.150 65.4607
1.066152 43.313 64.7428
1.073878 43.475 64.0265
1.081660 43.635 63.3124
1.089498 43.795 62.6012
1.097393 43.954 61.8940
1.105345 44.113 61.1921
1.113355 44.272 60.4972
1.121423 44.432 59.8103
1.129549 44.593 59.1324
1.137734 44.754 58.4640
1.145979 44.917 57.8052
1.154283 45.080 57.1561
1.162647 45.245 56.5164
1.171072 45.411 55.8861
1.179558 45.578 55.2648
1.188106 45.745 54.6523
1.196715 45.914 54.0481
1.205387 46.084 53.4519
1.214122 46.255 52.8634
1.222920 46.426 52.2822
1.231782 46.599 51.7078
1.240708 46.772 51.1400
1.249699 46.946 50.5783
1.258754 47.120 50.0223
1.267876 47.296 49.4716
1.277063 47.471 48.9259
1.286318 47.648 48.3846
1.295639 47.825 47.8476
1.305027 48.002 47.3142
1.314484 48.179 46.7842
1.324009 48.357 46.2571
1.333604 48.535 45.7326
1.343268 48.713 45.2103
1.353002 48.891 44.6897
1.362806 49.070 44.1706
1.372681 49.248 43.6525
1.382628 49.426 43.1352
1.392647 49.603 42.6182
1.402739 49.781 42.1014
1.412904 49.957 41.5843
1.423142 50.134 41.0671
1.433455 50.310 40.5496
1.443843 50.485 40.0321
1.454305 50.659 39.5152
1.464844 50.833 38.9998
1.475459 51.006 38.4870
1.486150 51.179 37.9777
1.496920 51.351 37.4727
1.507767 51.522 36.9725
1.518693 51.693 36.4772
1.529698 51.863 35.9867
1.540783 52.033 35.5007
1.551948 52.202 35.0189
1.563194 52.370 34.5408
1.574521 52.539 34.0661
1.585931 52.707 33.5941
1.597423 52.874 33.1246
1.608999 53.041 32.6570
1.620658 53.207 32.1909
1.632402 53.374 31.7257
1.644232 53.539 31.2611
1.656146 53.705 30.7966
1.668147 53.870 30.3318
1.680235 54.035 29.8662
1.692411 54.200 29.3993
1.704675 54.364 28.9308
1.717028 54.529 28.4602
1.729470 54.693 27.9871
1.742003 54.857 27.5111
1.754626 55.021 27.0319
1.767341 55.185 26.5492
1.780147 55.349 26.0627
1.793047 55.512 25.5723
1.806040 55.676 25.0782
1.819128 55.840 24.5806
1.832310 56.003 24.0802
1.845587 56.166 23.5778
1.858961 56.329 23.0742
1.872432 56.491 22.5701
1.886001 56.652 22.0660
1.899667 56.813 21.5623
1.913433 56.973 21.0591
1.927299 57.132 20.5565
1.941265 57.290 20.0546
1.955332 57.448 19.5532
1.969501 57.606 19.0523
1.983773 57.762 18.5517
1.998148 57.919 18.0513
2.012627 58.074 17.5510
2.027212 58.229 17.0505
2.041902 58.384 16.5496
2.056698 58.538 16.0481
2.071602 58.692 15.5458
2.086614 58.846 15.0423
2.101734 59.000 14.5376
2.116964 59.153 14.0312
2.132304 59.306 13.5230
2.147756 59.459 13.0128
2.163320 59.611 12.5003
2.178996 59.763 11.9856
2.194786 59.915 11.4688
2.210690 60.067 10.9499
2.226710 60.218 10.4293
2.242845 60.368 9.9073
2.259098 60.518 9.3843
2.275468 60.667 8.8603
2.291957 60.815 8.3358
2.308566 60.963 7.8106
2.325295 61.110 7.2851
2.342145 61.256 6.7592
2.359117 61.401 6.2329
2.376212 61.546 5.7063
2.393431 61.690 5.1793
2.410775 61.834 4.6519
2.428244 61.977 4.1240
2.445840 62.120 3.5954
2.463564 62.262 3.0661
2.481416 62.404 2.5359
2.499397 62.546 2.0046
2.517509 62.687 1.4720
2.535752 62.828 0.9379
2.554127 62.969 0.4021
2.572635 63.109 -0.1356
2.591277 63.248 -0.6751
2.610055 63.387 -1.2166
2.628968 63.525 -1.7598
2.648019 63.662 -2.3046
2.667208 63.798 -2.8508
2.686535 63.934 -3.3981
2.706003 64.069 -3.9463
2.725612 64.203 -4.4952
2.745363 64.336 -5.0447
2.765257 64.469 -5.5946
2.785295 64.601 -6.1447
2.805478 64.733 -6.6950
2.825808 64.864 -7.2455
2.846285 64.995 -7.7962
2.866910 65.125 -8.3472
2.887685 65.255 -8.8986
2.908611 65.384 -9.4508
2.929688 65.512 -10.0041
2.950917 65.640 -10.5587
2.972301 65.768 -11.1150
2.993839 65.894 -11.6731
3.015534 66.020 -12.2327
3.037386 66.145 -12.7939
3.059396 66.269 -13.3562
3.081565 66.392 -13.9193
3.103896 66.514 -14.4829
3.126388 66.636 -15.0468
3.149043 66.757 -15.6105
3.171862 66.878 -16.1739
3.194847 66.998 -16.7369
3.217998 67.117 -17.2992
3.241317 67.236 -17.8610
3.264805 67.354 -18.4225
3.288463 67.471 -18.9841
3.312293 67.588 -19.5460
3.336295 67.704 -20.1089
3.360471 67.819 -20.6729
3.384822 67.933 -21.2380
3.409350 68.047 -21.8041
3.434056 68.160 -22.3709
3.458940 68.272 -22.9379
3.484005 68.383 -23.5049
3.509252 68.493 -24.0713
3.534681 68.603 -24.6368
3.560295 68.712 -25.2012
3.586094 68.820 -25.7642
3.612081 68.928 -26.3258
3.638255 69.035 -26.8862
3.664620 69.141 -27.4459
3.691175 69.246 -28.0053
3.717923 69.351 -28.5649
3.744864 69.455 -29.1247
3.772001 69.558 -29.6847
3.799335 69.660 -30.2447
3.826866 69.761 -30.8043
3.854597 69.861 -31.3628
3.882529 69.961 -31.9199
3.910664 70.060 -32.4750
3.939002 70.158 -33.0279
3.967546 70.256 -33.5783
3.996296 70.353 -34.1262
4.025255 70.449 -34.6719
4.054423 70.544 -35.2158
4.083804 70.639 -35.7584
4.113396 70.732 -36.2998
4.143204 70.825 -36.8401
4.173227 70.917 -37.3790
4.203468 71.008 -37.9160
4.233928 71.099 -38.4507
4.264609 71.188 -38.9826
4.295512 71.277 -39.5111
4.326639 71.366 -40.0359
4.357992 71.454 -40.5570
4.389572 71.541 -41.0743
4.421380 71.627 -41.5882
4.453419 71.713 -42.0991
4.485691 71.798 -42.6072
4.518196 71.882 -43.1124
4.550936 71.966 -43.6145
4.583914 72.049 -44.1133
4.617131 72.131 -44.6082
4.650589 72.213 -45.0989
4.684289 72.295 -45.5849
4.718233 72.376 -46.0660
4.752424 72.457 -46.5421
4.786862 72.537 -47.0134
4.821549 72.617 -47.4801
4.856488 72.696 -47.9423
4.891680 72.775 -48.4003
4.927127 72.853 -48.8539
4.962831 72.932 -49.3032
4.998794 73.010 -49.7479
5.035017 73.088 -50.1880
5.071503 73.166 -50.6231
5.108253 73.244 -51.0533
5.145270 73.322 -51.4784
5.182555 73.400 -51.8986
5.220110 73.477 -52.3141
5.257937 73.555 -52.7251
5.296038 73.633 -53.1320
5.334415 73.712 -53.5352
5.373071 73.790 -53.9349
5.412006 73.869 -54.3313
5.451224 73.948 -54.7246
5.490725 74.027 -55.1148
5.530514 74.107 -55.5019
5.570590 74.187 -55.8862
5.610957 74.268 -56.2678
5.651616 74.349 -56.6473
5.692570 74.431 -57.0254
5.733821 74.513 -57.4028
5.775370 74.595 -57.7801
5.817221 74.678 -58.1577
5.859375 74.762 -58.5360
5.901834 74.846 -58.9150
5.944602 74.931 -59.2948
5.987679 75.016 -59.6759
6.031068 75.102 -60.0586
6.074771 75.188 -60.4438
6.118792 75.275 -60.8321
6.163131 75.361 -61.2241
6.207792 75.449 -61.6203
6.252776 75.536 -62.0210
6.298086 75.623 -62.4263
6.343725 75.711 -62.8361
6.389694 75.799 -63.2507
6.435996 75.887 -63.6703
6.482634 75.974 -64.0952
6.529610 76.062 -64.5257
6.576926 76.149 -64.9620
6.624585 76.235 -65.4044
6.672590 76.322 -65.8527
6.720942 76.407 -66.3068
6.769645 76.493 -66.7663
6.818700 76.577 -67.2308
6.868111 76.661 -67.7001
6.917881 76.743 -68.1738
6.968010 76.825 -68.6520
7.018504 76.906 -69.1344
7.069362 76.985 -69.6208
7.120590 77.063 -70.1104
7.172189 77.141 -70.6027
7.224161 77.217 -71.0966
7.276511 77.292 -71.5915
7.329239 77.365 -72.0869
7.382350 77.437 -72.5825
7.435845 77.508 -73.0779
7.489729 77.578 -73.5726
7.544002 77.646 -74.0656
7.598669 77.713 -74.5562
7.653732 77.779 -75.0434
7.709194 77.844 -75.5269
7.765058 77.908 -76.0063
7.821327 77.971 -76.4813
7.878004 78.033 -76.9518
7.935091 78.094 -77.4171
7.992592 78.155 -77.8771
8.050510 78.215 -78.3312
8.108847 78.275 -78.7795
8.167607 78.335 -79.2220
8.226793 78.394 -79.6589
8.286408 78.453 -80.0906
8.346454 78.512 -80.5174
8.406936 78.571 -80.9397
8.467856 78.631 -81.3577
8.529218 78.691 -81.7718
8.591024 78.751 -82.1828
8.653278 78.811 -82.5915
8.715983 78.872 -82.9987
8.779143 78.933 -83.4052
8.842760 78.995 -83.8116
8.906839 79.057 -84.2185
8.971381 79.120 -84.6266
9.036392 79.182 -85.0367
9.101873 79.245 -85.4493
9.167829 79.309 -85.8652
9.234263 79.372 -86.2848
9.301178 79.435 -86.7082
9.368578 79.498 -87.1355
9.436467 79.560 -87.5669
9.504847 79.623 -88.0024
9.573723 79.684 -88.4419
9.643099 79.745 -88.8852
9.712976 79.805 -89.3317
9.783361 79.864 -89.7808
9.854255 79.923 -90.2318
9.925663 79.980 -90.6843
9.997588 80.036 -91.1374
10.070035 80.092 -91.5904
10.143007 80.146 -92.0425
10.216507 80.199 -92.4927
10.290540 80.251 -92.9403
10.365109 80.302 -93.3845
10.440219 80.353 -93.8250
10.515873 80.402 -94.2610
10.592076 80.451 -94.6921
10.668830 80.500 -95.1180
10.746141 80.548 -95.5385
10.824012 80.597 -95.9537
10.902447 80.645 -96.3638
10.981451 80.693 -96.7691
11.061027 80.741 -97.1699
11.141180 80.790 -97.5668
11.221913 80.838 -97.9605
11.303232 80.888 -98.3517
11.385140 80.937 -98.7413
11.467641 80.987 -99.1299
11.550741 81.038 -99.5182
11.634442 81.089 -99.9071
11.718750 81.140 -100.2972
11.803669 81.191 -100.6889
11.889203 81.243 -101.0828
11.975357 81.294 -101.4789
12.062136 81.345 -101.8774
12.149543 81.396 -102.2784
12.237583 81.447 -102.6815
12.326262 81.497 -103.0864
12.415583 81.546 -103.4927
12.505552 81.595 -103.8997
12.596172 81.644 -104.3070
12.687449 81.691 -104.7138
12.779387 81.738 -105.1195
12.871992 81.785 -105.5234
12.965268 81.830 -105.9250
13.059220 81.876 -106.3238
13.153852 81.921 -106.7194
13.249170 81.965 -107.1116
13.345179 82.009 -107.5002
13.441884 82.054 -107.8854
13.539289 82.098 -108.2671
13.637401 82.142 -108.6459
13.736223 82.186 -109.0219
13.835761 82.230 -109.3957
13.936021 82.275 -109.7678
14.037007 82.319 -110.1388
14.138725 82.364 -110.5092
14.241180 82.409 -110.8795
14.344377 82.454 -111.2504
14.448323 82.499 -111.6221
14.553021 82.544 -111.9950
14.658478 82.588 -112.3694
14.764700 82.633 -112.7455
14.871691 82.677 -113.1232
14.979457 82.721 -113.5025
15.088005 82.764 -113.8833
15.197339 82.807 -114.2654
15.307465 82.849 -114.6482
15.418389 82.891 -115.0316
15.530117 82.931 -115.4149
15.642655 82.971 -115.7976
15.756008 83.010 -116.1791
15.870182 83.049 -116.5588
15.985184 83.086 -116.9362
16.101019 83.123 -117.3106
16.217694 83.159 -117.6816
16.335214 83.195 -118.0489
16.453586 83.230 -118.4122
16.572815 83.266 -118.7716
16.692909 83.301 -119.1272
16.813872 83.336 -119.4795
16.935713 83.371 -119.8293
17.058436 83.406 -120.1774
17.182048 83.442 -120.5251
17.306556 83.478 -120.8735
17.431967 83.514 -121.2240
17.558286 83.550 -121.5778
17.685521 83.587 -121.9360
17.813677 83.623 -122.2992
17.942762 83.658 -122.6678
18.072783 83.693 -123.0417
18.203746 83.727 -123.4202
18.335658 83.760 -123.8022
18.468526 83.791 -124.1862
18.602356 83.820 -124.5703
18.737156 83.849 -124.9523
18.872934 83.876 -125.3304
19.009695 83.902 -125.7029
19.147447 83.927 -126.0686
19.286197 83.951 -126.4268
19.425953 83.976 -126.7780
19.566721 84.001 -127.1231
19.708510 84.027 -127.4640
19.851326 84.054 -127.8032
19.995177 84.082 -128.1436
20.140070 84.111 -128.4879
20.286013 84.140 -128.8387
20.433014 84.170 -129.1978
20.581080 84.199 -129.5659
20.730219 84.227 -129.9424
20.880439 84.254 -130.3256
21.031747 84.278 -130.7126
21.184152 84.301 -131.0993
21.337661 84.321 -131.4812
21.492282 84.340 -131.8538
21.648024 84.357 -132.2131
21.804895 84.373 -132.5562
21.962902 84.390 -132.8817
22.122054 84.407 -133.1900
22.282360 84.427 -133.4834
22.443827 84.449 -133.7662
22.606464 84.474 -134.0437
22.770280 84.502 -134.3223
22.935283 84.533 -134.6081
23.101481 84.567 -134.9066
23.268884 84.602 -135.2216
23.437500 84.638 -135.5555
23.607338 84.673 -135.9078
23.778406 84.707 -136.2767
23.950714 84.738 -136.6579
24.124271 84.767 -137.0466
24.299086 84.793 -137.4370
24.475167 84.816 -137.8236
24.652524 84.837 -138.2017
24.831166 84.856 -138.5678
25.011103 84.874 -138.9200
25.192344 84.891 -139.2577
25.374898 84.908 -139.5819
25.558775 84.926 -139.8944
25.743984 84.945 -140.1975
25.930536 84.965 -140.4939
26.118439 84.986 -140.7856
26.307704 85.007 -141.0745
26.498341 85.029 -141.3621
26.690359 85.052 -141.6491
26.883768 85.075 -141.9363
27.078579 85.098 -142.2246
27.274801 85.122 -142.5146
27.472446 85.146 -142.8073
27.671522 85.170 -143.1036
27.872042 85.194 -143.4042
28.074014 85.217 -143.7095
28.277450 85.241 -144.0190
28.482360 85.263 -144.3320
28.688755 85.284 -144.6467
28.896645 85.304 -144.9615
29.106042 85.324 -145.2746
29.316957 85.343 -145.5845
29.529400 85.361 -145.8906
29.743382 85.379 -146.1933
29.958915 85.398 -146.4936
30.176009 85.417 -146.7930
30.394677 85.436 -147.0931
30.614929 85.456 -147.3953
30.836778 85.476 -147.7000
31.060234 85.495 -148.0070
31.285309 85.515 -148.3152
31.512015 85.534 -148.6230
31.740364 85.552 -148.9291
31.970368 85.571 -149.2326
32.202039 85.590 -149.5336
32.435388 85.610 -149.8329
32.670428 85.631 -150.1325
32.907171 85.653 -150.4341
33.145630 85.675 -150.7393
33.385817 85.697 -151.0489
33.627745 85.719 -151.3622
33.871425 85.740 -151.6779
34.116871 85.761 -151.9936
34.364096 85.781 -152.3073
34.613113 85.801 -152.6174
34.863934 85.821 -152.9232
35.116572 85.841 -153.2253
35.371041 85.862 -153.5250
35.627354 85.882 -153.8236
35.885525 85.903 -154.1223
36.145566 85.924 -154.4212
36.407492 85.944 -154.7195
36.671316 85.964 -155.0161
36.937051 85.983 -155.3099
37.204712 86.003 -155.6003
37.474313 86.022 -155.8877
37.745867 86.042 -156.1737
38.019389 86.062 -156.4601
38.294893 86.081 -156.7484
38.572394 86.101 -157.0394
38.851905 86.120 -157.3328
39.133442 86.139 -157.6275
39.417019 86.157 -157.9221
39.702651 86.175 -158.2160
39.990353 86.193 -158.5096
40.280140 86.211 -158.8042
40.572026 86.229 -159.1013
40.866028 86.247 -159.4022
41.162160 86.265 -159.7071
41.460438 86.283 -160.0154
41.760877 86.300 -160.3259
42.063494 86.317 -160.6377
42.368303 86.334 -160.9510
42.675322 86.350 -161.2665
42.984565 86.367 -161.5851
43.296048 86.384 -161.9067
43.609789 86.400 -162.2299
43.925804 86.416 -162.5523
44.244108 86.431 -162.8710
44.564719 86.447 -163.1850
44.887654 86.464 -163.4953
45.212928 86.483 -163.8057
45.540560 86.503 -164.1208
45.870565 86.524 -164.4448
46.202962 86.546 -164.7793
46.537768 86.567 -165.1235
46.875000 86.587 -165.4744
47.214676 86.607 -165.8285
47.556813 86.626 -166.1832
47.901429 86.644 -166.5376
48.248542 86.662 -166.8918
48.598171 86.680 -167.2461
48.950334 86.698 -167.6007
49.305048 86.716 -167.9558
49.662333 86.733 -168.3114
50.022206 86.750 -168.6684
50.384688 86.768 -169.0280
50.749796 86.785 -169.3911
51.117550 86.801 -169.7580
51.487969 86.817 -170.1282
51.861072 86.833 -170.5007
52.236879 86.847 -170.8749
52.615409 86.862 -171.2508
52.996681 86.876 -171.6292
53.380717 86.889 -172.0105
53.767536 86.902 -172.3947
54.157158 86.915 -172.7814
54.549603 86.927 -173.1699
54.944892 86.939 -173.5605
55.343045 86.951 -173.9538
55.744084 86.963 -174.3507
56.148028 86.975 -174.7518
56.554900 86.987 -175.1573
56.964720 86.998 -175.5670
57.377510 87.009 -175.9812
57.793291 87.020 -176.4002
58.212085 87.029 -176.8241
58.633914 87.038 -177.2518
59.058799 87.045 -177.6808
59.486764 87.051 -178.1075
59.917829 87.055 -178.5294
60.352019 87.059 -178.9462
60.789354 87.063 -179.3604
61.229859 87.067 -179.7760
61.673556 87.070 179.8036
62.120468 87.072 179.3768
62.570618 87.074 178.9442
63.024031 87.074 178.5067
63.480729 87.073 178.0640
63.940736 87.071 177.6149
64.404077 87.068 177.1573
64.870776 87.063 176.6906
65.340856 87.057 176.2164
65.814343 87.048 175.7405
66.291261 87.036 175.2728
66.771635 87.024 174.8239
67.255489 87.012 174.3989
67.742850 87.003 173.9922
68.233743 86.999 173.5885
68.728193 87.000 173.1707
69.226226 87.001 172.7304
69.727867 87.002 172.2707
70.233144 87.002 171.8014
70.742083 86.999 171.3314
71.254709 86.995 170.8640
71.771050 86.990 170.3981
72.291132 86.984 169.9319
72.814984 86.976 169.4643
73.342631 86.967 168.9957
73.874102 86.956 168.5268
74.409424 86.942 168.0583
74.948626 86.928 167.5905
75.491734 86.911 167.1233
76.038779 86.894 166.6563
76.589787 86.875 166.1899
77.144788 86.854 165.7248
77.703811 86.833 165.2630
78.266885 86.810 164.8065
78.834039 86.787 164.3566
79.405303 86.764 163.9131
79.980706 86.740 163.4747
80.560280 86.717 163.0388
81.144053 86.694 162.6027
81.732056 86.671 162.1643
82.324320 86.647 161.7233
82.920876 86.622 161.2808
83.521755 86.596 160.8381
84.126988 86.569 160.3961
84.736607 86.541 159.9557
85.350643 86.512 159.5175
85.969129 86.482 159.0813
86.592097 86.452 158.6463
87.219579 86.421 158.2120
87.851608 86.388 157.7787
88.488217 86.355 157.3470
89.129439 86.321 156.9182
89.775308 86.286 156.4932
90.425856 86.251 156.0714
91.081119 86.215 155.6498
91.741131 86.179 155.2256
92.405925 86.142 154.7977
