* Measurement data measured by REW V5.20.13
* Source: Trace Arithmetic result A * B
* Format: Trace Arithmetic result A * B
* Dated: Feb 4, 2023 7:29:59 PM
* REW Settings:
*  C-weighting compensation: Off
*  Target level: 75.0 dB
* Note: Trace Arithmetic A times B A = KEMAR DF HRTF B = Target KEMAR DF HRTF
* Measurement: A times B
* Smoothing: 1/48 octave
* Frequency Step: 1/48 octave
* Start Frequency: 20.000 Hz
*
* Freq(Hz)	SPL(dB)
20.000000	88.368
20.299999	88.328
20.600000	88.298
20.900000	88.269
21.200001	88.240
21.400000	88.221
21.799999	88.184
22.000000	88.166
22.400000	88.129
22.700001	88.102
23.000000	88.076
23.299999	88.050
23.600000	88.024
24.000000	87.990
24.299999	87.965
24.700001	87.932
25.000000	87.907
25.400000	87.875
25.799999	87.844
26.200001	87.813
26.500000	87.790
26.900000	87.759
27.200001	87.737
27.600000	87.707
28.000000	87.678
28.500000	87.643
29.000000	87.608
29.500000	87.573
30.000000	87.539
30.400000	87.512
30.700001	87.492
31.100000	87.466
31.500000	87.441
32.000000	87.409
32.500000	87.377
33.000000	87.347
33.500000	87.316
34.000000	87.286
34.500000	87.257
35.000000	87.228
35.500000	87.199
36.000000	87.171
36.500000	87.143
37.000000	87.116
37.500000	87.088
38.200001	87.051
38.700001	87.025
39.500000	86.983
40.000000	86.958
40.599998	86.928
41.200001	86.898
41.799999	86.869
42.500000	86.836
43.099998	86.807
43.700001	86.779
44.400002	86.748
45.000000	86.720
45.500000	86.698
46.200001	86.667
46.799999	86.642
47.500000	86.611
48.200001	86.581
48.700001	86.561
49.400002	86.532
50.000000	86.507
50.799999	86.475
51.500000	86.448
52.200001	86.420
53.000000	86.390
53.799999	86.359
54.500000	86.333
55.200001	86.308
56.000000	86.278
57.000000	86.243
58.000000	86.208
59.000000	86.173
60.000000	86.139
60.799999	86.112
61.500000	86.089
62.200001	86.066
63.000000	86.041
64.000000	86.009
65.000000	85.977
66.000000	85.947
67.000000	85.916
68.000000	85.886
69.000000	85.857
70.000000	85.828
71.000000	85.799
72.000000	85.771
73.000000	85.743
74.000000	85.715
75.000000	85.688
76.199997	85.656
77.500000	85.622
78.800003	85.589
80.000000	85.558
81.199997	85.528
82.500000	85.496
83.800003	85.464
85.000000	85.436
86.199997	85.407
87.500000	85.377
88.500000	85.354
90.000000	85.320
91.199997	85.293
92.500000	85.265
93.800003	85.237
95.000000	85.211
96.199997	85.186
97.500000	85.158
98.800003	85.132
100.000000	85.107
101.500000	85.077
103.000000	85.048
104.400002	85.020
106.000000	84.990
107.500000	84.961
109.000000	84.933
110.599998	84.904
112.000000	84.878
113.800003	84.846
115.000000	84.825
117.199997	84.787
118.000000	84.773
120.599998	84.729
122.000000	84.707
124.099998	84.671
125.000000	84.657
126.500000	84.633
128.000000	84.609
131.500000	84.555
132.000000	84.548
134.000000	84.516
136.000000	84.486
138.000000	84.457
140.000000	84.428
143.000000	84.385
145.000000	84.357
147.500000	84.322
150.000000	84.288
152.500000	84.255
155.000000	84.223
157.500000	84.190
160.000000	84.156
162.500000	84.120
165.000000	84.084
167.500000	84.052
170.000000	84.023
172.500000	83.997
175.000000	83.972
177.500000	83.949
180.000000	83.927
182.500000	83.905
185.000000	83.884
187.500000	83.863
190.000000	83.842
192.500000	83.821
195.000000	83.799
197.500000	83.776
200.000000	83.753
203.000000	83.726
206.000000	83.699
209.000000	83.671
212.000000	83.647
214.000000	83.631
218.000000	83.602
220.000000	83.590
224.000000	83.569
227.000000	83.557
230.000000	83.549
233.000000	83.543
236.000000	83.539
240.000000	83.536
243.000000	83.535
247.000000	83.535
250.000000	83.534
254.000000	83.531
258.000000	83.527
262.000000	83.522
265.000000	83.516
269.000000	83.509
272.000000	83.503
276.000000	83.497
280.000000	83.490
285.000000	83.482
290.000000	83.477
295.000000	83.474
300.000000	83.473
304.000000	83.475
307.000000	83.476
311.000000	83.480
315.000000	83.485
320.000000	83.493
325.000000	83.503
330.000000	83.513
335.000000	83.523
340.000000	83.533
345.000000	83.543
350.000000	83.552
355.000000	83.560
360.000000	83.568
365.000000	83.575
370.000000	83.581
375.000000	83.587
382.000000	83.595
387.000000	83.603
395.000000	83.617
400.000000	83.626
406.000000	83.640
412.000000	83.656
418.000000	83.673
425.000000	83.696
431.000000	83.717
437.000000	83.739
444.000000	83.765
450.000000	83.788
455.000000	83.809
462.000000	83.837
468.000000	83.863
475.000000	83.893
482.000000	83.924
487.000000	83.945
494.000000	83.973
500.000000	83.997
508.000000	84.036
515.000000	84.067
522.000000	84.097
530.000000	84.130
538.000000	84.160
545.000000	84.185
552.000000	84.209
560.000000	84.235
570.000000	84.266
580.000000	84.295
590.000000	84.324
600.000000	84.352
608.000000	84.371
615.000000	84.389
622.000000	84.406
630.000000	84.424
640.000000	84.446
650.000000	84.468
660.000000	84.491
670.000000	84.512
680.000000	84.534
690.000000	84.555
700.000000	84.576
710.000000	84.597
720.000000	84.616
730.000000	84.635
740.000000	84.651
750.000000	84.667
762.000000	84.684
775.000000	84.698
788.000000	84.707
800.000000	84.714
812.000000	84.717
825.000000	84.718
838.000000	84.716
850.000000	84.714
862.000000	84.713
875.000000	84.712
885.000000	84.715
900.000000	84.722
912.000000	84.730
925.000000	84.745
938.000000	84.764
950.000000	84.785
962.000000	84.809
975.000000	84.840
988.000000	84.875
1000.000000	84.911
1015.000000	84.957
1030.000000	85.007
1044.000000	85.057
1060.000000	85.115
1075.000000	85.173
1090.000000	85.233
1106.000000	85.296
1120.000000	85.352
1138.000000	85.423
1150.000000	85.470
1172.000000	85.552
1180.000000	85.580
1206.000000	85.666
1220.000000	85.708
1241.000000	85.765
1250.000000	85.789
1265.000000	85.825
1280.000000	85.858
1315.000000	85.938
1320.000000	85.950
1340.000000	86.000
1360.000000	86.059
1380.000000	86.130
1400.000000	86.216
1430.000000	86.380
1450.000000	86.511
1475.000000	86.705
1500.000000	86.920
1525.000000	87.159
1550.000000	87.417
1575.000000	87.685
1600.000000	87.959
1625.000000	88.236
1650.000000	88.511
1675.000000	88.781
1700.000000	89.044
1725.000000	89.300
1750.000000	89.547
1775.000000	89.784
1800.000000	90.015
1825.000000	90.236
1850.000000	90.451
1875.000000	90.658
1900.000000	90.860
1925.000000	91.059
1950.000000	91.254
1975.000000	91.448
2000.000000	91.641
2030.000000	91.873
2060.000000	92.106
2090.000000	92.341
2120.000000	92.576
2140.000000	92.734
2180.000000	93.048
2200.000000	93.201
2240.000000	93.500
2270.000000	93.714
2300.000000	93.915
2330.000000	94.100
2360.000000	94.266
2400.000000	94.462
2430.000000	94.585
2470.000000	94.720
2500.000000	94.798
2540.000000	94.875
2580.000000	94.924
2620.000000	94.950
2650.000000	94.954
2690.000000	94.943
2720.000000	94.926
2760.000000	94.892
2800.000000	94.847
2850.000000	94.781
2900.000000	94.703
2950.000000	94.619
3000.000000	94.528
3040.000000	94.454
3070.000000	94.395
3110.000000	94.316
3150.000000	94.236
3200.000000	94.135
3250.000000	94.031
3300.000000	93.925
3350.000000	93.817
3400.000000	93.705
3450.000000	93.592
3500.000000	93.477
3550.000000	93.360
3600.000000	93.239
3650.000000	93.115
3700.000000	92.989
3750.000000	92.859
3820.000000	92.675
3870.000000	92.540
3950.000000	92.317
4000.000000	92.174
4060.000000	92.001
4120.000000	91.825
4180.000000	91.646
4250.000000	91.435
4310.000000	91.254
4370.000000	91.071
4440.000000	90.860
4500.000000	90.680
4550.000000	90.531
4620.000000	90.325
4680.000000	90.153
4750.000000	89.958
4820.000000	89.770
4870.000000	89.641
4940.000000	89.465
5000.000000	89.322
5080.000000	89.140
5150.000000	88.990
5220.000000	88.849
5300.000000	88.695
5380.000000	88.550
5450.000000	88.431
5520.000000	88.316
5600.000000	88.192
5700.000000	88.045
5800.000000	87.907
5900.000000	87.776
6000.000000	87.651
6080.000000	87.559
6150.000000	87.481
6220.000000	87.406
6300.000000	87.325
6400.000000	87.234
6500.000000	87.153
6600.000000	87.082
6700.000000	87.026
6800.000000	86.984
6900.000000	86.958
7000.000000	86.939
7100.000000	86.924
7200.000000	86.914
7300.000000	86.910
7400.000000	86.910
7500.000000	86.917
7620.000000	86.929
7750.000000	86.939
7880.000000	86.947
8000.000000	86.948
8120.000000	86.935
8250.000000	86.905
8380.000000	86.856
8500.000000	86.791
8620.000000	86.710
8750.000000	86.601
8850.000000	86.503
9000.000000	86.334
9120.000000	86.180
9250.000000	85.997
9380.000000	85.800
9500.000000	85.610
9620.000000	85.415
9750.000000	85.200
9880.000000	84.986
10000.000000	84.792
10150.000000	84.560
10300.000000	84.336
10440.000000	84.137
10600.000000	83.919
10750.000000	83.721
10900.000000	83.525
11060.000000	83.318
11200.000000	83.139
11380.000000	82.908
11500.000000	82.753
11720.000000	82.467
11800.000000	82.363
12060.000000	82.024
12200.000000	81.842
12410.000000	81.573
12500.000000	81.457
12650.000000	81.266
12800.000000	81.075
13150.000000	80.634
13200.000000	80.572
13400.000000	80.314
13600.000000	80.052
13800.000000	79.785
14000.000000	79.510
14300.000000	79.085
14500.000000	78.793
14750.000000	78.421
15000.000000	78.042
15250.000000	77.663
15500.000000	77.285
15750.000000	76.915
16000.000000	76.556
16250.000000	76.212
16500.000000	75.880
16750.000000	75.557
17000.000000	75.241
17250.000000	74.923
17500.000000	74.602
17750.000000	74.270
18000.000000	73.924
18250.000000	73.559
18500.000000	73.168
18750.000000	72.744
19000.000000	72.273
19250.000000	71.740
19500.000000	71.126
19750.000000	70.427
20000.000000	69.728
