* Measurement data measured by REW V5.20.13
* Source: Trace Arithmetic result A * B
* Format: Trace Arithmetic result A * B
* Dated: Jan 31, 2023 1:38:12 AM
* REW Settings:
*  C-weighting compensation: Off
*  Target level: 75.0 dB
* Note: Trace Arithmetic A times B A = 1/A B = Listener DF Target
* Measurement: A times B
* Smoothing: 1/48 octave
* Frequency Step: 1/48 octave
* Start Frequency: 20.000 Hz
*
* Freq(Hz)	SPL(dB)
20.000000	81.095
20.299999	81.095
20.600000	81.095
20.900000	81.095
21.200001	81.095
21.400000	81.095
21.799999	81.095
22.000000	81.095
22.400000	81.095
22.700001	81.095
23.000000	81.095
23.299999	81.095
23.600000	81.095
24.000000	81.095
24.299999	81.095
24.700001	81.095
25.000000	81.095
25.400000	81.095
25.799999	81.095
26.200001	81.095
26.500000	81.095
26.900000	81.095
27.200001	81.095
27.600000	81.095
28.000000	81.095
28.500000	81.095
29.000000	81.095
29.500000	81.095
30.000000	81.095
30.400000	81.095
30.700001	81.095
31.100000	81.095
31.500000	81.095
32.000000	81.095
32.500000	81.095
33.000000	81.095
33.500000	81.095
34.000000	81.095
34.500000	81.095
35.000000	81.095
35.500000	81.095
36.000000	81.095
36.500000	81.095
37.000000	81.096
37.500000	81.095
38.200001	81.095
38.700001	81.095
39.500000	81.095
40.000000	81.095
40.599998	81.095
41.200001	81.095
41.799999	81.095
42.500000	81.095
43.099998	81.095
43.700001	81.095
44.400002	81.096
45.000000	81.095
45.500000	81.095
46.200001	81.095
46.799999	81.096
47.500000	81.095
48.200001	81.095
48.700001	81.095
49.400002	81.095
50.000000	81.095
50.799999	81.095
51.500000	81.095
52.200001	81.095
53.000000	81.095
53.799999	81.095
54.500000	81.095
55.200001	81.096
56.000000	81.095
57.000000	81.095
58.000000	81.096
59.000000	81.095
60.000000	81.095
60.799999	81.095
61.500000	81.095
62.200001	81.095
63.000000	81.095
64.000000	81.095
65.000000	81.095
66.000000	81.095
67.000000	81.095
68.000000	81.095
69.000000	81.095
70.000000	81.095
71.000000	81.095
72.000000	81.095
73.000000	81.095
74.000000	81.095
75.000000	81.095
76.199997	81.095
77.500000	81.095
78.800003	81.095
80.000000	81.095
81.199997	81.095
82.500000	81.095
83.800003	81.095
85.000000	81.095
86.199997	81.095
87.500000	81.095
88.500000	81.095
90.000000	81.095
91.199997	81.095
92.500000	81.095
93.800003	81.095
95.000000	81.095
96.199997	81.095
97.500000	81.095
98.800003	81.095
100.000000	81.095
101.500000	81.095
103.000000	81.095
104.400002	81.095
106.000000	81.095
107.500000	81.095
109.000000	81.095
110.599998	81.095
112.000000	81.095
113.800003	81.095
115.000000	81.095
117.199997	81.095
118.000000	81.095
120.599998	81.095
122.000000	81.096
124.099998	81.095
125.000000	81.096
126.500000	81.095
128.000000	81.095
131.500000	81.096
132.000000	81.096
134.000000	81.095
136.000000	81.095
138.000000	81.095
140.000000	81.095
143.000000	81.095
145.000000	81.095
147.500000	81.095
150.000000	81.095
152.500000	81.095
155.000000	81.096
157.500000	81.095
160.000000	81.093
162.500000	81.088
165.000000	81.083
167.500000	81.082
170.000000	81.082
172.500000	81.086
175.000000	81.090
177.500000	81.096
180.000000	81.102
182.500000	81.108
185.000000	81.114
187.500000	81.120
190.000000	81.126
192.500000	81.131
195.000000	81.136
197.500000	81.138
200.000000	81.141
203.000000	81.144
206.000000	81.146
209.000000	81.148
212.000000	81.152
214.000000	81.155
218.000000	81.164
220.000000	81.170
224.000000	81.186
227.000000	81.200
230.000000	81.219
233.000000	81.239
236.000000	81.261
240.000000	81.292
243.000000	81.316
247.000000	81.349
250.000000	81.372
254.000000	81.401
258.000000	81.429
262.000000	81.455
265.000000	81.472
269.000000	81.495
272.000000	81.512
276.000000	81.535
280.000000	81.557
285.000000	81.585
290.000000	81.615
295.000000	81.647
300.000000	81.680
304.000000	81.708
307.000000	81.729
311.000000	81.759
315.000000	81.790
320.000000	81.830
325.000000	81.871
330.000000	81.912
335.000000	81.952
340.000000	81.993
345.000000	82.032
350.000000	82.070
355.000000	82.107
360.000000	82.143
365.000000	82.178
370.000000	82.211
375.000000	82.244
382.000000	82.290
387.000000	82.324
395.000000	82.379
400.000000	82.414
406.000000	82.458
412.000000	82.503
418.000000	82.550
425.000000	82.606
431.000000	82.655
437.000000	82.705
444.000000	82.763
450.000000	82.814
455.000000	82.857
462.000000	82.916
468.000000	82.968
475.000000	83.028
482.000000	83.088
487.000000	83.130
494.000000	83.187
500.000000	83.235
508.000000	83.297
515.000000	83.348
522.000000	83.398
530.000000	83.452
538.000000	83.504
545.000000	83.548
552.000000	83.590
560.000000	83.637
570.000000	83.693
580.000000	83.748
590.000000	83.801
600.000000	83.853
608.000000	83.892
615.000000	83.926
622.000000	83.959
630.000000	83.996
640.000000	84.041
650.000000	84.085
660.000000	84.130
670.000000	84.173
680.000000	84.216
690.000000	84.258
700.000000	84.300
710.000000	84.341
720.000000	84.380
730.000000	84.419
740.000000	84.455
750.000000	84.490
762.000000	84.530
775.000000	84.569
788.000000	84.602
800.000000	84.630
812.000000	84.655
825.000000	84.679
838.000000	84.699
850.000000	84.718
862.000000	84.737
875.000000	84.758
885.000000	84.777
900.000000	84.808
912.000000	84.836
925.000000	84.871
938.000000	84.910
950.000000	84.949
962.000000	84.992
975.000000	85.042
988.000000	85.096
1000.000000	85.149
1015.000000	85.217
1030.000000	85.288
1044.000000	85.358
1060.000000	85.438
1075.000000	85.516
1090.000000	85.596
1106.000000	85.680
1120.000000	85.754
1138.000000	85.848
1150.000000	85.910
1172.000000	86.020
1180.000000	86.057
1206.000000	86.175
1220.000000	86.233
1241.000000	86.315
1250.000000	86.349
1265.000000	86.403
1280.000000	86.453
1315.000000	86.571
1320.000000	86.589
1340.000000	86.661
1360.000000	86.741
1380.000000	86.833
1400.000000	86.940
1430.000000	87.134
1450.000000	87.286
1475.000000	87.504
1500.000000	87.744
1525.000000	88.007
1550.000000	88.288
1575.000000	88.579
1600.000000	88.876
1625.000000	89.175
1650.000000	89.472
1675.000000	89.764
1700.000000	90.048
1725.000000	90.325
1750.000000	90.593
1775.000000	90.851
1800.000000	91.102
1825.000000	91.343
1850.000000	91.577
1875.000000	91.804
1900.000000	92.025
1925.000000	92.243
1950.000000	92.456
1975.000000	92.669
2000.000000	92.880
2030.000000	93.133
2060.000000	93.387
2090.000000	93.643
2120.000000	93.899
2140.000000	94.070
2180.000000	94.411
2200.000000	94.577
2240.000000	94.902
2270.000000	95.135
2300.000000	95.355
2330.000000	95.559
2360.000000	95.743
2400.000000	95.964
2430.000000	96.105
2470.000000	96.263
2500.000000	96.359
2540.000000	96.458
2580.000000	96.530
2620.000000	96.578
2650.000000	96.598
2690.000000	96.609
2720.000000	96.608
2760.000000	96.595
2800.000000	96.571
2850.000000	96.530
2900.000000	96.477
2950.000000	96.418
3000.000000	96.351
3040.000000	96.296
3070.000000	96.251
3110.000000	96.191
3150.000000	96.130
3200.000000	96.051
3250.000000	95.970
3300.000000	95.886
3350.000000	95.799
3400.000000	95.709
3450.000000	95.617
3500.000000	95.523
3550.000000	95.426
3600.000000	95.325
3650.000000	95.221
3700.000000	95.115
3750.000000	95.004
3820.000000	94.847
3870.000000	94.730
3950.000000	94.537
4000.000000	94.412
4060.000000	94.261
4120.000000	94.106
4180.000000	93.948
4250.000000	93.761
4310.000000	93.600
4370.000000	93.437
4440.000000	93.249
4500.000000	93.088
4550.000000	92.955
4620.000000	92.771
4680.000000	92.618
4750.000000	92.444
4820.000000	92.277
4870.000000	92.163
4940.000000	92.008
5000.000000	91.882
5080.000000	91.723
5150.000000	91.593
5220.000000	91.471
5300.000000	91.339
5380.000000	91.216
5450.000000	91.115
5520.000000	91.019
5600.000000	90.916
5700.000000	90.794
5800.000000	90.681
5900.000000	90.575
6000.000000	90.474
6080.000000	90.401
6150.000000	90.340
6220.000000	90.281
6300.000000	90.219
6400.000000	90.150
6500.000000	90.092
6600.000000	90.043
6700.000000	90.008
6800.000000	89.988
6900.000000	89.983
7000.000000	89.985
7100.000000	89.990
7200.000000	90.000
7300.000000	90.016
7400.000000	90.036
7500.000000	90.062
7620.000000	90.097
7750.000000	90.132
7880.000000	90.164
8000.000000	90.186
8120.000000	90.195
8250.000000	90.188
8380.000000	90.161
8500.000000	90.117
8620.000000	90.056
8750.000000	89.969
8850.000000	89.887
9000.000000	89.742
9120.000000	89.607
9250.000000	89.444
9380.000000	89.268
9500.000000	89.096
9620.000000	88.919
9750.000000	88.723
9880.000000	88.528
10000.000000	88.352
10150.000000	88.141
10300.000000	87.939
10440.000000	87.759
10600.000000	87.563
10750.000000	87.385
10900.000000	87.209
11060.000000	87.023
11200.000000	86.863
11380.000000	86.654
11500.000000	86.514
11720.000000	86.256
11800.000000	86.162
12060.000000	85.854
12200.000000	85.689
12410.000000	85.444
12500.000000	85.339
12650.000000	85.165
12800.000000	84.991
13150.000000	84.589
13200.000000	84.532
13400.000000	84.296
13600.000000	84.055
13800.000000	83.809
14000.000000	83.555
14300.000000	83.161
14500.000000	82.889
14750.000000	82.541
15000.000000	82.187
15250.000000	81.831
15500.000000	81.477
15750.000000	81.130
16000.000000	80.794
16250.000000	80.472
16500.000000	80.162
16750.000000	79.861
17000.000000	79.566
17250.000000	79.269
17500.000000	78.969
17750.000000	78.657
18000.000000	78.331
18250.000000	77.986
18500.000000	77.615
18750.000000	77.210
19000.000000	76.758
19250.000000	76.244
19500.000000	75.649
19750.000000	74.967
20000.000000	74.285
