* Measurement data measured by REW V5.31.3
* Source: Headset (2- CX31993 HIFI AUDIO), MICROPHONE (Master Volume), R, volume: 0.250
* Format: 256k Log Swept Sine, 1 sweep at -12.0 dBFS with no timing reference
* Dated: 11 5, 24 6:05:16 PM
* REW Settings:
*  C-weighting compensation: Off
*  Target level: 75.0 dB
* Note: ; 
* Measurement: 7A Supernova 11-05-2024 L
* Smoothing: 1/12 octave
* Frequency Step: 96 ppo
* Start Frequency: 0.36621094 Hz
*
* Freq(Hz) SPL(dB) Phase(degrees)
0.366211 53.299 49.8737
0.368865 53.329 49.7277
0.371538 53.374 49.5112
0.374230 53.430 49.2436
0.376942 53.492 48.9413
0.379673 53.559 48.6161
0.382424 53.628 48.2762
0.385196 53.700 47.9264
0.387987 53.772 47.5697
0.390798 53.845 47.2076
0.393630 53.919 46.8413
0.396483 53.994 46.4711
0.399356 54.069 46.0977
0.402250 54.145 45.7211
0.405165 54.222 45.3416
0.408101 54.299 44.9593
0.411058 54.376 44.5745
0.414037 54.454 44.1873
0.417037 54.533 43.7978
0.420059 54.612 43.4062
0.423103 54.692 43.0127
0.426169 54.772 42.6174
0.429257 54.853 42.2204
0.432368 54.935 41.8219
0.435501 55.017 41.4221
0.438656 55.099 41.0210
0.441835 55.183 40.6189
0.445037 55.267 40.2158
0.448262 55.351 39.8118
0.451510 55.436 39.4072
0.454782 55.522 39.0020
0.458077 55.608 38.5964
0.461397 55.695 38.1904
0.464740 55.783 37.7842
0.468108 55.871 37.3779
0.471500 55.960 36.9715
0.474917 56.050 36.5652
0.478358 56.140 36.1591
0.481825 56.231 35.7532
0.485316 56.322 35.3477
0.488833 56.415 34.9425
0.492375 56.508 34.5378
0.495943 56.601 34.1336
0.499537 56.695 33.7300
0.503157 56.790 33.3271
0.506803 56.886 32.9247
0.510475 56.982 32.5231
0.514175 57.079 32.1222
0.517900 57.177 31.7221
0.521653 57.275 31.3227
0.525434 57.374 30.9241
0.529241 57.474 30.5264
0.533076 57.575 30.1294
0.536939 57.676 29.7332
0.540830 57.778 29.3378
0.544749 57.881 28.9431
0.548696 57.984 28.5492
0.552673 58.088 28.1560
0.556677 58.193 27.7635
0.560711 58.299 27.3716
0.564774 58.406 26.9804
0.568867 58.513 26.5897
0.572989 58.621 26.1995
0.577141 58.730 25.8097
0.581324 58.840 25.4203
0.585536 58.950 25.0313
0.589779 59.061 24.6425
0.594053 59.173 24.2539
0.598358 59.286 23.8653
0.602694 59.400 23.4768
0.607061 59.514 23.0882
0.611460 59.630 22.6994
0.615891 59.746 22.3104
0.620354 59.863 21.9210
0.624849 59.981 21.5311
0.629377 60.100 21.1406
0.633938 60.219 20.7494
0.638532 60.340 20.3574
0.643159 60.461 19.9645
0.647819 60.583 19.5705
0.652514 60.706 19.1753
0.657242 60.830 18.7788
0.662005 60.955 18.3808
0.666802 61.081 17.9813
0.671634 61.208 17.5800
0.676501 61.336 17.1768
0.681403 61.464 16.7716
0.686341 61.593 16.3642
0.691314 61.724 15.9544
0.696324 61.855 15.5422
0.701370 61.987 15.1274
0.706452 62.119 14.7098
0.711571 62.251 14.2895
0.716728 62.383 13.8663
0.721921 62.514 13.4405
0.727153 62.642 13.0123
0.732422 62.768 12.5821
0.737729 62.891 12.1505
0.743075 63.010 11.7181
0.748460 63.127 11.2857
0.753883 63.243 10.8535
0.759346 63.357 10.4220
0.764849 63.471 9.9914
0.770391 63.584 9.5620
0.775974 63.696 9.1339
0.781597 63.809 8.7072
0.787261 63.921 8.2820
0.792966 64.033 7.8584
0.798712 64.145 7.4364
0.804500 64.256 7.0162
0.810329 64.368 6.5977
0.816201 64.479 6.1810
0.822116 64.590 5.7660
0.828073 64.701 5.3528
0.834074 64.812 4.9415
0.840118 64.922 4.5319
0.846206 65.032 4.1240
0.852338 65.143 3.7179
0.858514 65.252 3.3135
0.864735 65.362 2.9107
0.871001 65.472 2.5095
0.877313 65.582 2.1099
0.883670 65.691 1.7117
0.890074 65.800 1.3148
0.896524 65.909 0.9193
0.903020 66.018 0.5249
0.909564 66.127 0.1316
0.916155 66.236 -0.2606
0.922794 66.345 -0.6520
0.929481 66.454 -1.0427
0.936216 66.563 -1.4327
0.943000 66.671 -1.8222
0.949834 66.780 -2.2113
0.956717 66.889 -2.6002
0.963649 66.998 -2.9890
0.970632 67.106 -3.3779
0.977666 67.215 -3.7671
0.984750 67.324 -4.1566
0.991886 67.433 -4.5467
0.999074 67.543 -4.9376
1.006314 67.652 -5.3294
1.013606 67.762 -5.7224
1.020951 67.871 -6.1166
1.028349 67.981 -6.5124
1.035801 68.092 -6.9099
1.043307 68.202 -7.3094
1.050867 68.313 -7.7110
1.058482 68.424 -8.1149
1.066152 68.536 -8.5215
1.073878 68.648 -8.9308
1.081660 68.760 -9.3431
1.089498 68.873 -9.7585
1.097393 68.986 -10.1771
1.105345 69.099 -10.5989
1.113355 69.211 -11.0237
1.121423 69.324 -11.4515
1.129549 69.436 -11.8820
1.137734 69.548 -12.3152
1.145979 69.659 -12.7506
1.154283 69.771 -13.1882
1.162647 69.882 -13.6276
1.171072 69.992 -14.0688
1.179558 70.102 -14.5115
1.188106 70.212 -14.9555
1.196715 70.321 -15.4007
1.205387 70.430 -15.8468
1.214122 70.539 -16.2937
1.222920 70.647 -16.7412
1.231782 70.755 -17.1893
1.240708 70.863 -17.6377
1.249699 70.970 -18.0862
1.258754 71.077 -18.5349
1.267876 71.184 -18.9835
1.277063 71.291 -19.4320
1.286318 71.398 -19.8802
1.295639 71.504 -20.3280
1.305027 71.610 -20.7754
1.314484 71.716 -21.2223
1.324009 71.822 -21.6685
1.333604 71.927 -22.1141
1.343268 72.033 -22.5590
1.353002 72.139 -23.0030
1.362806 72.244 -23.4463
1.372681 72.350 -23.8887
1.382628 72.455 -24.3302
1.392647 72.561 -24.7709
1.402739 72.667 -25.2106
1.412904 72.773 -25.6495
1.423142 72.879 -26.0875
1.433455 72.985 -26.5248
1.443843 73.091 -26.9616
1.454305 73.198 -27.3979
1.464844 73.304 -27.8340
1.475459 73.410 -28.2701
1.486150 73.516 -28.7066
1.496920 73.622 -29.1435
1.507767 73.727 -29.5811
1.518693 73.832 -30.0193
1.529698 73.936 -30.4581
1.540783 74.040 -30.8976
1.551948 74.144 -31.3378
1.563194 74.247 -31.7786
1.574521 74.349 -32.2200
1.585931 74.451 -32.6620
1.597423 74.553 -33.1046
1.608999 74.655 -33.5478
1.620658 74.756 -33.9917
1.632402 74.856 -34.4361
1.644232 74.957 -34.8813
1.656146 75.057 -35.3271
1.668147 75.156 -35.7736
1.680235 75.256 -36.2210
1.692411 75.355 -36.6692
1.704675 75.454 -37.1182
1.717028 75.553 -37.5683
1.729470 75.651 -38.0194
1.742003 75.750 -38.4717
1.754626 75.848 -38.9253
1.767341 75.946 -39.3803
1.780147 76.044 -39.8368
1.793047 76.142 -40.2951
1.806040 76.240 -40.7555
1.819128 76.338 -41.2182
1.832310 76.436 -41.6837
1.845587 76.533 -42.1521
1.858961 76.630 -42.6238
1.872432 76.726 -43.0989
1.886001 76.822 -43.5773
1.899667 76.918 -44.0589
1.913433 77.013 -44.5435
1.927299 77.107 -45.0307
1.941265 77.201 -45.5203
1.955332 77.294 -46.0120
1.969501 77.387 -46.5055
1.983773 77.480 -47.0005
1.998148 77.571 -47.4968
2.012627 77.663 -47.9940
2.027212 77.754 -48.4919
2.041902 77.844 -48.9902
2.056698 77.935 -49.4888
2.071602 78.025 -49.9874
2.086614 78.114 -50.4859
2.101734 78.203 -50.9840
2.116964 78.292 -51.4816
2.132304 78.381 -51.9788
2.147756 78.470 -52.4756
2.163320 78.558 -52.9722
2.178996 78.646 -53.4688
2.194786 78.733 -53.9661
2.210690 78.820 -54.4646
2.226710 78.907 -54.9650
2.242845 78.993 -55.4676
2.259098 79.079 -55.9728
2.275468 79.164 -56.4804
2.291957 79.248 -56.9904
2.308566 79.332 -57.5025
2.325295 79.415 -58.0164
2.342145 79.497 -58.5318
2.359117 79.579 -59.0482
2.376212 79.660 -59.5655
2.393431 79.741 -60.0831
2.410775 79.822 -60.6008
2.428244 79.901 -61.1182
2.445840 79.981 -61.6351
2.463564 80.060 -62.1512
2.481416 80.138 -62.6663
2.499397 80.217 -63.1802
2.517509 80.294 -63.6930
2.535752 80.372 -64.2049
2.554127 80.449 -64.7163
2.572635 80.525 -65.2278
2.591277 80.601 -65.7401
2.610055 80.677 -66.2537
2.628968 80.751 -66.7690
2.648019 80.825 -67.2860
2.667208 80.899 -67.8047
2.686535 80.971 -68.3249
2.706003 81.043 -68.8462
2.725612 81.115 -69.3683
2.745363 81.185 -69.8908
2.765257 81.256 -70.4134
2.785295 81.325 -70.9356
2.805478 81.394 -71.4571
2.825808 81.463 -71.9775
2.846285 81.531 -72.4966
2.866910 81.599 -73.0142
2.887685 81.666 -73.5303
2.908611 81.733 -74.0451
2.929688 81.799 -74.5592
2.950917 81.865 -75.0730
2.972301 81.930 -75.5871
2.993839 81.994 -76.1020
3.015534 82.058 -76.6178
3.037386 82.121 -77.1345
3.059396 82.183 -77.6520
3.081565 82.245 -78.1697
3.103896 82.306 -78.6875
3.126388 82.367 -79.2049
3.149043 82.427 -79.7214
3.171862 82.486 -80.2366
3.194847 82.545 -80.7501
3.217998 82.603 -81.2615
3.241317 82.661 -81.7708
3.264805 82.719 -82.2778
3.288463 82.776 -82.7828
3.312293 82.833 -83.2861
3.336295 82.889 -83.7882
3.360471 82.944 -84.2896
3.384822 82.999 -84.7905
3.409350 83.053 -85.2909
3.434056 83.107 -85.7908
3.458940 83.160 -86.2901
3.484005 83.212 -86.7884
3.509252 83.264 -87.2855
3.534681 83.315 -87.7811
3.560295 83.366 -88.2750
3.586094 83.417 -88.7668
3.612081 83.467 -89.2565
3.638255 83.517 -89.7441
3.664620 83.567 -90.2297
3.691175 83.616 -90.7136
3.717923 83.664 -91.1961
3.744864 83.712 -91.6774
3.772001 83.760 -92.1577
3.799335 83.807 -92.6368
3.826866 83.853 -93.1149
3.854597 83.899 -93.5916
3.882529 83.945 -94.0667
3.910664 83.990 -94.5402
3.939002 84.035 -95.0117
3.967546 84.080 -95.4812
3.996296 84.124 -95.9485
4.025255 84.169 -96.4138
4.054423 84.212 -96.8771
4.083804 84.256 -97.3386
4.113396 84.299 -97.7984
4.143204 84.342 -98.2569
4.173227 84.384 -98.7138
4.203468 84.426 -99.1694
4.233928 84.468 -99.6236
4.264609 84.509 -100.0764
4.295512 84.550 -100.5277
4.326639 84.591 -100.9775
4.357992 84.632 -101.4258
4.389572 84.672 -101.8726
4.421380 84.712 -102.3181
4.453419 84.752 -102.7622
4.485691 84.792 -103.2051
4.518196 84.831 -103.6469
4.550936 84.870 -104.0877
4.583914 84.909 -104.5273
4.617131 84.948 -104.9659
4.650589 84.986 -105.4035
4.684289 85.025 -105.8400
4.718233 85.063 -106.2756
4.752424 85.100 -106.7102
4.786862 85.138 -107.1438
4.821549 85.175 -107.5766
4.856488 85.212 -108.0087
4.891680 85.249 -108.4400
4.927127 85.286 -108.8707
4.962831 85.322 -109.3006
4.998794 85.358 -109.7299
5.035017 85.394 -110.1585
5.071503 85.430 -110.5865
5.108253 85.465 -111.0138
5.145270 85.500 -111.4407
5.182555 85.535 -111.8670
5.220110 85.570 -112.2929
5.257937 85.604 -112.7184
5.296038 85.638 -113.1435
5.334415 85.672 -113.5681
5.373071 85.706 -113.9922
5.412006 85.739 -114.4157
5.451224 85.772 -114.8388
5.490725 85.805 -115.2613
5.530514 85.837 -115.6833
5.570590 85.869 -116.1049
5.610957 85.901 -116.5261
5.651616 85.933 -116.9469
5.692570 85.964 -117.3672
5.733821 85.995 -117.7869
5.775370 86.026 -118.2059
5.817221 86.056 -118.6241
5.859375 86.086 -119.0417
5.901834 86.116 -119.4586
5.944602 86.145 -119.8748
5.987679 86.174 -120.2903
6.031068 86.203 -120.7051
6.074771 86.231 -121.1192
6.118792 86.260 -121.5324
6.163131 86.287 -121.9446
6.207792 86.315 -122.3559
6.252776 86.342 -122.7661
6.298086 86.369 -123.1754
6.343725 86.396 -123.5838
6.389694 86.422 -123.9911
6.435996 86.448 -124.3974
6.482634 86.474 -124.8024
6.529610 86.499 -125.2063
6.576926 86.524 -125.6089
6.624585 86.549 -126.0102
6.672590 86.574 -126.4101
6.720942 86.598 -126.8088
6.769645 86.622 -127.2061
6.818700 86.646 -127.6021
6.868111 86.670 -127.9965
6.917881 86.693 -128.3895
6.968010 86.716 -128.7809
7.018504 86.739 -129.1708
7.069362 86.761 -129.5591
7.120590 86.784 -129.9458
7.172189 86.806 -130.3309
7.224161 86.828 -130.7143
7.276511 86.849 -131.0960
7.329239 86.871 -131.4760
7.382350 86.892 -131.8541
7.435845 86.914 -132.2306
7.489729 86.935 -132.6053
7.544002 86.955 -132.9782
7.598669 86.976 -133.3493
7.653732 86.997 -133.7188
7.709194 87.017 -134.0864
7.765058 87.038 -134.4523
7.821327 87.058 -134.8165
7.878004 87.078 -135.1790
7.935091 87.098 -135.5400
7.992592 87.119 -135.8994
8.050510 87.139 -136.2573
8.108847 87.159 -136.6138
8.167607 87.179 -136.9690
8.226793 87.199 -137.3229
8.286408 87.219 -137.6757
8.346454 87.238 -138.0274
8.406936 87.258 -138.3782
8.467856 87.278 -138.7283
8.529218 87.298 -139.0775
8.591024 87.318 -139.4262
8.653278 87.338 -139.7743
8.715983 87.358 -140.1221
8.779143 87.377 -140.4695
8.842760 87.397 -140.8167
8.906839 87.416 -141.1638
8.971381 87.436 -141.5107
9.036392 87.455 -141.8575
9.101873 87.474 -142.2042
9.167829 87.493 -142.5508
9.234263 87.511 -142.8973
9.301178 87.530 -143.2437
9.368578 87.548 -143.5897
9.436467 87.565 -143.9353
9.504847 87.583 -144.2804
9.573723 87.600 -144.6248
9.643099 87.617 -144.9684
9.712976 87.633 -145.3110
9.783361 87.649 -145.6523
9.854255 87.665 -145.9922
9.925663 87.680 -146.3303
9.997588 87.695 -146.6667
10.070035 87.710 -147.0010
10.143007 87.724 -147.3330
10.216507 87.738 -147.6627
10.290540 87.752 -147.9899
10.365109 87.765 -148.3144
10.440219 87.779 -148.6363
10.515873 87.792 -148.9554
10.592076 87.805 -149.2720
10.668830 87.818 -149.5860
10.746141 87.831 -149.8975
10.824012 87.844 -150.2067
10.902447 87.858 -150.5139
10.981451 87.871 -150.8193
11.061027 87.884 -151.1231
11.141180 87.898 -151.4258
11.221913 87.912 -151.7275
11.303232 87.926 -152.0287
11.385140 87.940 -152.3298
11.467641 87.954 -152.6310
11.550741 87.968 -152.9325
11.634442 87.982 -153.2348
11.718750 87.997 -153.5380
11.803669 88.011 -153.8424
11.889203 88.025 -154.1479
11.975357 88.039 -154.4548
12.062136 88.053 -154.7630
12.149543 88.067 -155.0725
12.237583 88.080 -155.3832
12.326262 88.093 -155.6949
12.415583 88.106 -156.0075
12.505552 88.119 -156.3206
12.596172 88.131 -156.6342
12.687449 88.142 -156.9478
12.779387 88.153 -157.2613
12.871992 88.164 -157.5743
12.965268 88.175 -157.8866
13.059220 88.185 -158.1981
13.153852 88.194 -158.5086
13.249170 88.204 -158.8178
13.345179 88.213 -159.1257
13.441884 88.222 -159.4323
13.539289 88.231 -159.7375
13.637401 88.240 -160.0414
13.736223 88.249 -160.3439
13.835761 88.257 -160.6454
13.936021 88.266 -160.9457
14.037007 88.274 -161.2451
14.138725 88.283 -161.5437
14.241180 88.291 -161.8417
14.344377 88.300 -162.1393
14.448323 88.309 -162.4366
14.553021 88.317 -162.7337
14.658478 88.326 -163.0310
14.764700 88.335 -163.3285
14.871691 88.344 -163.6264
14.979457 88.353 -163.9251
15.088005 88.362 -164.2245
15.197339 88.371 -164.5250
15.307465 88.379 -164.8267
15.418389 88.388 -165.1296
15.530117 88.397 -165.4340
15.642655 88.406 -165.7397
15.756008 88.414 -166.0468
15.870182 88.422 -166.3551
15.985184 88.430 -166.6643
16.101019 88.437 -166.9741
16.217694 88.444 -167.2839
16.335214 88.450 -167.5933
16.453586 88.456 -167.9015
16.572815 88.461 -168.2079
16.692909 88.466 -168.5119
16.813872 88.471 -168.8129
16.935713 88.476 -169.1104
17.058436 88.480 -169.4040
17.182048 88.484 -169.6936
17.306556 88.489 -169.9795
17.431967 88.493 -170.2620
17.558286 88.499 -170.5418
17.685521 88.504 -170.8199
17.813677 88.511 -171.0973
17.942762 88.518 -171.3752
18.072783 88.525 -171.6550
18.203746 88.533 -171.9376
18.335658 88.542 -172.2241
18.468526 88.550 -172.5150
18.602356 88.558 -172.8106
18.737156 88.566 -173.1107
18.872934 88.573 -173.4146
19.009695 88.579 -173.7214
19.147447 88.584 -174.0297
19.286197 88.588 -174.3380
19.425953 88.591 -174.6448
19.566721 88.594 -174.9485
19.708510 88.595 -175.2479
19.851326 88.596 -175.5423
19.995177 88.597 -175.8313
20.140070 88.597 -176.1152
20.286013 88.598 -176.3948
20.433014 88.600 -176.6712
20.581080 88.601 -176.9460
20.730219 88.604 -177.2208
20.880439 88.606 -177.4970
21.031747 88.609 -177.7759
21.184152 88.612 -178.0582
21.337661 88.615 -178.3441
21.492282 88.617 -178.6331
21.648024 88.618 -178.9242
21.804895 88.619 -179.2161
21.962902 88.619 -179.5070
22.122054 88.618 -179.7955
22.282360 88.617 179.9198
22.443827 88.615 179.6398
22.606464 88.614 179.3644
22.770280 88.613 179.0932
22.935283 88.612 178.8249
23.101481 88.613 178.5575
23.268884 88.614 178.2890
23.437500 88.616 178.0171
23.607338 88.619 177.7397
23.778406 88.623 177.4554
23.950714 88.626 177.1633
24.124271 88.630 176.8633
24.299086 88.632 176.5561
24.475167 88.634 176.2430
24.652524 88.635 175.9258
24.831166 88.634 175.6068
25.011103 88.633 175.2878
25.192344 88.630 174.9707
25.374898 88.627 174.6571
25.558775 88.623 174.3479
25.743984 88.619 174.0433
25.930536 88.616 173.7433
26.118439 88.612 173.4469
26.307704 88.609 173.1531
26.498341 88.607 172.8602
26.690359 88.605 172.5668
26.883768 88.604 172.2711
27.078579 88.603 171.9717
27.274801 88.602 171.6677
27.472446 88.601 171.3588
27.671522 88.600 171.0451
27.872042 88.598 170.7280
28.074014 88.595 170.4090
28.277450 88.590 170.0906
28.482360 88.585 169.7755
28.688755 88.578 169.4660
28.896645 88.571 169.1643
29.106042 88.564 168.8717
29.316957 88.556 168.5882
29.529400 88.550 168.3128
29.743382 88.545 168.0435
29.958915 88.541 167.7772
30.176009 88.538 167.5106
30.394677 88.537 167.2407
30.614929 88.536 166.9645
30.836778 88.537 166.6804
31.060234 88.537 166.3875
31.285309 88.537 166.0861
31.512015 88.536 165.7774
31.740364 88.534 165.4633
31.970368 88.530 165.1461
32.202039 88.526 164.8279
32.435388 88.520 164.5107
32.670428 88.513 164.1962
32.907171 88.506 163.8851
33.145630 88.497 163.5779
33.385817 88.489 163.2743
33.627745 88.480 162.9738
33.871425 88.471 162.6755
34.116871 88.462 162.3788
34.364096 88.453 162.0831
34.613113 88.444 161.7882
34.863934 88.434 161.4942
35.116572 88.424 161.2014
35.371041 88.415 160.9097
35.627354 88.405 160.6190
35.885525 88.395 160.3289
36.145566 88.386 160.0383
36.407492 88.377 159.7462
36.671316 88.368 159.4515
36.937051 88.359 159.1534
37.204712 88.350 158.8517
37.474313 88.341 158.5464
37.745867 88.332 158.2380
38.019389 88.322 157.9273
38.294893 88.312 157.6148
38.572394 88.301 157.3013
38.851905 88.290 156.9875
39.133442 88.278 156.6740
39.417019 88.267 156.3615
39.702651 88.254 156.0506
39.990353 88.242 155.7416
40.280140 88.230 155.4341
40.572026 88.218 155.1276
40.866028 88.207 154.8207
41.162160 88.196 154.5125
41.460438 88.184 154.2018
41.760877 88.173 153.8887
42.063494 88.161 153.5735
42.368303 88.149 153.2574
42.675322 88.137 152.9417
42.984565 88.124 152.6272
43.296048 88.112 152.3140
43.609789 88.099 152.0012
43.925804 88.087 151.6870
44.244108 88.075 151.3701
44.564719 88.062 151.0492
44.887654 88.049 150.7249
45.212928 88.035 150.3986
45.540560 88.021 150.0730
45.870565 88.005 149.7504
46.202962 87.989 149.4321
46.537768 87.973 149.1177
46.875000 87.958 148.8054
47.214676 87.943 148.4924
47.556813 87.928 148.1765
47.901429 87.914 147.8566
48.248542 87.898 147.5330
48.598171 87.883 147.2072
48.950334 87.866 146.8806
49.305048 87.850 146.5542
49.662333 87.832 146.2285
50.022206 87.815 145.9035
50.384688 87.797 145.5794
50.749796 87.779 145.2569
51.117550 87.761 144.9366
51.487969 87.742 144.6192
51.861072 87.725 144.3038
52.236879 87.708 143.9885
52.615409 87.691 143.6707
52.996681 87.675 143.3483
53.380717 87.659 143.0211
53.767536 87.642 142.6908
54.157158 87.625 142.3608
54.549603 87.607 142.0338
54.944892 87.590 141.7100
55.343045 87.573 141.3873
55.744084 87.556 141.0616
56.148028 87.540 140.7305
56.554900 87.523 140.3942
56.964720 87.505 140.0554
57.377510 87.486 139.7178
57.793291 87.466 139.3831
58.212085 87.446 139.0507
58.633914 87.426 138.7191
59.058799 87.406 138.3878
59.486764 87.385 138.0583
59.917829 87.365 137.7319
60.352019 87.346 137.4079
60.789354 87.327 137.0828
61.229859 87.310 136.7517
61.673556 87.294 136.4120
62.120468 87.277 136.0641
62.570618 87.259 135.7117
63.024031 87.241 135.3593
63.480729 87.222 135.0108
63.940736 87.202 134.6682
64.404077 87.182 134.3318
64.870776 87.161 134.0010
65.340856 87.140 133.6756
65.814343 87.118 133.3567
66.291261 87.094 133.0467
66.771635 87.069 132.7474
67.255489 87.044 132.4590
67.742850 87.020 132.1794
68.233743 86.995 131.9061
68.728193 86.972 131.6349
69.226226 86.951 131.3578
69.727867 86.932 131.0630
70.233144 86.915 130.7394
70.742083 86.897 130.3828
71.254709 86.876 129.9998
71.771050 86.853 129.6031
72.291132 86.827 129.2052
72.814984 86.800 128.8126
73.342631 86.773 128.4273
73.874102 86.746 128.0496
74.409424 86.720 127.6798
74.948626 86.695 127.3177
75.491734 86.671 126.9620
76.038779 86.648 126.6109
76.589787 86.626 126.2632
77.144788 86.603 125.9191
77.703811 86.579 125.5786
78.266885 86.555 125.2404
78.834039 86.530 124.9033
79.405303 86.504 124.5672
79.980706 86.478 124.2330
80.560280 86.450 123.9000
81.144053 86.424 123.5648
81.732056 86.397 123.2240
82.324320 86.369 122.8788
82.920876 86.342 122.5331
83.521755 86.315 122.1885
84.126988 86.289 121.8414
84.736607 86.264 121.4885
85.350643 86.238 121.1328
85.969129 86.211 120.7815
86.592097 86.185 120.4380
87.219579 86.159 120.0986
87.851608 86.134 119.7596
88.488217 86.108 119.4224
89.129439 86.083 119.0888
89.775308 86.059 118.7551
90.425856 86.036 118.4137
91.081119 86.012 118.0622
91.741131 85.987 117.7046
