* Measurement data measured by REW V5.31.3
* Source: Headset (2- CX31993 HIFI AUDIO), MICROPHONE (Master Volume), R, volume: 0.250
* Format: 256k Log Swept Sine, 1 sweep at -12.0 dBFS with no timing reference
* Dated: 12 3, 24 6:32:36 AM
* REW Settings:
*  C-weighting compensation: Off
*  Target level: 75.0 dB
* Note: ; 
* Measurement: APP2 L
* Smoothing: 1/12 octave
* Frequency Step: 96 ppo
* Start Frequency: 0.36621094 Hz
*
* Freq(Hz) SPL(dB) Phase(degrees)
0.366211 24.390 -31.6995
0.368865 24.361 -31.6623
0.371538 24.319 -31.6076
0.374230 24.267 -31.5409
0.376942 24.208 -31.4670
0.379673 24.145 -31.3895
0.382424 24.079 -31.3105
0.385196 24.011 -31.2316
0.387987 23.942 -31.1535
0.390798 23.871 -31.0766
0.393630 23.801 -31.0012
0.396483 23.729 -30.9272
0.399356 23.657 -30.8547
0.402250 23.584 -30.7835
0.405165 23.511 -30.7137
0.408101 23.437 -30.6450
0.411058 23.363 -30.5774
0.414037 23.288 -30.5108
0.417037 23.213 -30.4450
0.420059 23.137 -30.3799
0.423103 23.061 -30.3152
0.426169 22.984 -30.2508
0.429257 22.906 -30.1866
0.432368 22.828 -30.1223
0.435501 22.750 -30.0577
0.438656 22.670 -29.9926
0.441835 22.591 -29.9267
0.445037 22.510 -29.8598
0.448262 22.429 -29.7915
0.451510 22.348 -29.7215
0.454782 22.265 -29.6495
0.458077 22.183 -29.5752
0.461397 22.099 -29.4980
0.464740 22.015 -29.4177
0.468108 21.931 -29.3336
0.471500 21.846 -29.2454
0.474917 21.760 -29.1523
0.478358 21.674 -29.0539
0.481825 21.587 -28.9495
0.485316 21.499 -28.8382
0.488833 21.411 -28.7195
0.492375 21.322 -28.5923
0.495943 21.232 -28.4557
0.499537 21.142 -28.3088
0.503157 21.051 -28.1504
0.506803 20.960 -27.9792
0.510475 20.867 -27.7939
0.514175 20.775 -27.5931
0.517900 20.681 -27.3749
0.521653 20.587 -27.1377
0.525434 20.492 -26.8795
0.529241 20.396 -26.5979
0.533076 20.300 -26.2906
0.536939 20.203 -25.9548
0.540830 20.106 -25.5876
0.544749 20.007 -25.1855
0.548696 19.908 -24.7449
0.552673 19.808 -24.2615
0.556677 19.708 -23.7308
0.560711 19.607 -23.1476
0.564774 19.505 -22.5061
0.568867 19.402 -21.7998
0.572989 19.299 -21.0217
0.577141 19.194 -20.1637
0.581324 19.089 -19.2168
0.585536 18.984 -18.1713
0.589779 18.877 -17.0161
0.594053 18.770 -15.7393
0.598358 18.662 -14.3277
0.602694 18.553 -12.7671
0.607061 18.443 -11.0427
0.611460 18.333 -9.1386
0.615891 18.222 -7.0391
0.620354 18.110 -4.7290
0.624849 17.997 -2.1949
0.629377 17.884 0.5738
0.633938 17.769 3.5829
0.638532 17.654 6.8315
0.643159 17.538 10.3093
0.647819 17.421 13.9960
0.652514 17.303 17.8589
0.657242 17.184 21.8540
0.662005 17.065 25.9269
0.666802 16.945 30.0167
0.671634 16.823 34.0605
0.676501 16.701 37.9982
0.681403 16.579 41.7771
0.686341 16.455 45.3546
0.691314 16.331 48.7005
0.696324 16.207 51.7963
0.701370 16.084 54.6344
0.706452 15.964 57.2162
0.711571 15.848 59.5508
0.716728 15.742 61.6526
0.721921 15.651 63.5408
0.727153 15.585 65.2378
0.732422 15.551 66.7682
0.737729 15.555 68.1570
0.743075 15.597 69.4264
0.748460 15.672 70.5950
0.753883 15.775 71.6763
0.759346 15.900 72.6806
0.764849 16.044 73.6152
0.770391 16.205 74.4859
0.775974 16.382 75.2971
0.781597 16.573 76.0526
0.787261 16.778 76.7556
0.792966 16.997 77.4091
0.798712 17.230 78.0157
0.804500 17.476 78.5777
0.810329 17.734 79.0973
0.816201 18.006 79.5765
0.822116 18.290 80.0172
0.828073 18.585 80.4210
0.834074 18.893 80.7896
0.840118 19.212 81.1245
0.846206 19.542 81.4268
0.852338 19.883 81.6979
0.858514 20.235 81.9389
0.864735 20.596 82.1508
0.871001 20.967 82.3346
0.877313 21.347 82.4912
0.883670 21.735 82.6214
0.890074 22.132 82.7258
0.896524 22.536 82.8053
0.903020 22.947 82.8605
0.909564 23.365 82.8918
0.916155 23.788 82.8998
0.922794 24.216 82.8850
0.929481 24.649 82.8479
0.936216 25.086 82.7887
0.943000 25.526 82.7079
0.949834 25.968 82.6058
0.956717 26.412 82.4826
0.963649 26.856 82.3386
0.970632 27.301 82.1740
0.977666 27.744 81.9891
0.984750 28.186 81.7839
0.991886 28.624 81.5586
0.999074 29.059 81.3134
1.006314 29.489 81.0484
1.013606 29.914 80.7636
1.020951 30.331 80.4592
1.028349 30.741 80.1351
1.035801 31.142 79.7916
1.043307 31.532 79.4287
1.050867 31.912 79.0466
1.058482 32.279 78.6456
1.066152 32.633 78.2262
1.073878 32.974 77.7891
1.081660 33.302 77.3358
1.089498 33.616 76.8681
1.097393 33.918 76.3887
1.105345 34.208 75.9006
1.113355 34.488 75.4072
1.121423 34.760 74.9111
1.129549 35.025 74.4144
1.137734 35.282 73.9184
1.145979 35.533 73.4240
1.154283 35.778 72.9314
1.162647 36.016 72.4411
1.171072 36.249 71.9529
1.179558 36.476 71.4668
1.188106 36.698 70.9828
1.196715 36.915 70.5006
1.205387 37.126 70.0200
1.214122 37.333 69.5408
1.222920 37.534 69.0627
1.231782 37.732 68.5855
1.240708 37.925 68.1089
1.249699 38.114 67.6326
1.258754 38.299 67.1562
1.267876 38.481 66.6795
1.277063 38.659 66.2021
1.286318 38.834 65.7237
1.295639 39.007 65.2439
1.305027 39.178 64.7623
1.314484 39.346 64.2786
1.324009 39.513 63.7924
1.333604 39.679 63.3033
1.343268 39.843 62.8109
1.353002 40.008 62.3148
1.362806 40.172 61.8145
1.372681 40.337 61.3098
1.382628 40.503 60.8002
1.392647 40.670 60.2852
1.402739 40.838 59.7646
1.412904 41.009 59.2380
1.423142 41.183 58.7052
1.433455 41.359 58.1663
1.443843 41.538 57.6214
1.454305 41.719 57.0710
1.464844 41.902 56.5163
1.475459 42.086 55.9585
1.486150 42.271 55.3988
1.496920 42.455 54.8384
1.507767 42.638 54.2780
1.518693 42.819 53.7182
1.529698 43.000 53.1591
1.540783 43.178 52.6009
1.551948 43.356 52.0433
1.563194 43.532 51.4864
1.574521 43.706 50.9297
1.585931 43.879 50.3731
1.597423 44.051 49.8164
1.608999 44.222 49.2591
1.620658 44.391 48.7010
1.632402 44.559 48.1417
1.644232 44.727 47.5809
1.656146 44.893 47.0182
1.668147 45.058 46.4532
1.680235 45.223 45.8855
1.692411 45.387 45.3147
1.704675 45.551 44.7403
1.717028 45.714 44.1620
1.729470 45.877 43.5793
1.742003 46.040 42.9917
1.754626 46.203 42.3988
1.767341 46.365 41.8002
1.780147 46.528 41.1955
1.793047 46.691 40.5844
1.806040 46.854 39.9668
1.819128 47.017 39.3427
1.832310 47.180 38.7123
1.845587 47.342 38.0763
1.858961 47.504 37.4352
1.872432 47.665 36.7899
1.886001 47.825 36.1411
1.899667 47.984 35.4894
1.913433 48.142 34.8354
1.927299 48.299 34.1796
1.941265 48.455 33.5224
1.955332 48.610 32.8642
1.969501 48.764 32.2052
1.983773 48.917 31.5456
1.998148 49.070 30.8857
2.012627 49.221 30.2254
2.027212 49.372 29.5649
2.041902 49.522 28.9042
2.056698 49.671 28.2432
2.071602 49.820 27.5818
2.086614 49.969 26.9198
2.101734 50.117 26.2571
2.116964 50.265 25.5935
2.132304 50.412 24.9285
2.147756 50.559 24.2618
2.163320 50.706 23.5929
2.178996 50.852 22.9215
2.194786 50.998 22.2469
2.210690 51.143 21.5688
2.226710 51.288 20.8869
2.242845 51.432 20.2013
2.259098 51.575 19.5122
2.275468 51.717 18.8201
2.291957 51.858 18.1254
2.308566 51.998 17.4286
2.325295 52.137 16.7304
2.342145 52.275 16.0312
2.359117 52.412 15.3314
2.376212 52.549 14.6316
2.393431 52.684 13.9321
2.410775 52.819 13.2331
2.428244 52.954 12.5350
2.445840 53.087 11.8379
2.463564 53.221 11.1418
2.481416 53.353 10.4468
2.499397 53.485 9.7528
2.517509 53.617 9.0594
2.535752 53.748 8.3661
2.554127 53.879 7.6722
2.572635 54.009 6.9769
2.591277 54.138 6.2795
2.610055 54.266 5.5793
2.628968 54.394 4.8763
2.648019 54.520 4.1707
2.667208 54.645 3.4628
2.686535 54.770 2.7533
2.706003 54.893 2.0428
2.725612 55.016 1.3319
2.745363 55.137 0.6214
2.765257 55.258 -0.0881
2.785295 55.379 -0.7962
2.805478 55.498 -1.5021
2.825808 55.617 -2.2056
2.846285 55.736 -2.9064
2.866910 55.854 -3.6042
2.887685 55.971 -4.2994
2.908611 56.088 -4.9924
2.929688 56.204 -5.6839
2.950917 56.319 -6.3748
2.972301 56.434 -7.0659
2.993839 56.547 -7.7579
3.015534 56.660 -8.4507
3.037386 56.772 -9.1442
3.059396 56.882 -9.8380
3.081565 56.992 -10.5315
3.103896 57.102 -11.2241
3.126388 57.210 -11.9150
3.149043 57.318 -12.6036
3.171862 57.425 -13.2892
3.194847 57.532 -13.9713
3.217998 57.638 -14.6496
3.241317 57.744 -15.3237
3.264805 57.849 -15.9939
3.288463 57.954 -16.6605
3.312293 58.058 -17.3242
3.336295 58.162 -17.9858
3.360471 58.264 -18.6458
3.384822 58.366 -19.3045
3.409350 58.468 -19.9620
3.434056 58.568 -20.6180
3.458940 58.668 -21.2722
3.484005 58.768 -21.9241
3.509252 58.867 -22.5732
3.534681 58.965 -23.2191
3.560295 59.064 -23.8611
3.586094 59.162 -24.4990
3.612081 59.260 -25.1324
3.638255 59.357 -25.7615
3.664620 59.454 -26.3863
3.691175 59.551 -27.0073
3.717923 59.648 -27.6249
3.744864 59.744 -28.2395
3.772001 59.840 -28.8513
3.799335 59.936 -29.4606
3.826866 60.031 -30.0672
3.854597 60.126 -30.6711
3.882529 60.221 -31.2722
3.910664 60.315 -31.8704
3.939002 60.410 -32.4654
3.967546 60.505 -33.0572
3.996296 60.600 -33.6457
4.025255 60.695 -34.2308
4.054423 60.790 -34.8126
4.083804 60.885 -35.3913
4.113396 60.980 -35.9671
4.143204 61.075 -36.5403
4.173227 61.170 -37.1112
4.203468 61.265 -37.6802
4.233928 61.360 -38.2474
4.264609 61.455 -38.8132
4.295512 61.551 -39.3778
4.326639 61.646 -39.9413
4.357992 61.742 -40.5037
4.389572 61.839 -41.0652
4.421380 61.935 -41.6256
4.453419 62.032 -42.1849
4.485691 62.129 -42.7433
4.518196 62.226 -43.3009
4.550936 62.323 -43.8582
4.583914 62.421 -44.4154
4.617131 62.519 -44.9731
4.650589 62.617 -45.5317
4.684289 62.715 -46.0915
4.718233 62.814 -46.6529
4.752424 62.912 -47.2158
4.786862 63.011 -47.7805
4.821549 63.110 -48.3467
4.856488 63.209 -48.9145
4.891680 63.309 -49.4840
4.927127 63.408 -50.0553
4.962831 63.508 -50.6288
4.998794 63.607 -51.2046
5.035017 63.707 -51.7831
5.071503 63.806 -52.3646
5.108253 63.905 -52.9494
5.145270 64.005 -53.5375
5.182555 64.104 -54.1290
5.220110 64.203 -54.7239
5.257937 64.302 -55.3219
5.296038 64.401 -55.9230
5.334415 64.499 -56.5272
5.373071 64.597 -57.1343
5.412006 64.695 -57.7444
5.451224 64.793 -58.3577
5.490725 64.890 -58.9743
5.530514 64.986 -59.5942
5.570590 65.082 -60.2176
5.610957 65.178 -60.8443
5.651616 65.273 -61.4739
5.692570 65.367 -62.1062
5.733821 65.461 -62.7407
5.775370 65.554 -63.3773
5.817221 65.647 -64.0157
5.859375 65.739 -64.6559
5.901834 65.830 -65.2982
5.944602 65.921 -65.9425
5.987679 66.011 -66.5886
6.031068 66.100 -67.2362
6.074771 66.188 -67.8848
6.118792 66.276 -68.5339
6.163131 66.363 -69.1831
6.207792 66.449 -69.8322
6.252776 66.534 -70.4813
6.298086 66.619 -71.1303
6.343725 66.703 -71.7793
6.389694 66.786 -72.4279
6.435996 66.868 -73.0759
6.482634 66.950 -73.7228
6.529610 67.031 -74.3683
6.576926 67.112 -75.0120
6.624585 67.192 -75.6540
6.672590 67.271 -76.2944
6.720942 67.350 -76.9331
6.769645 67.428 -77.5700
6.818700 67.506 -78.2051
6.868111 67.583 -78.8380
6.917881 67.660 -79.4687
6.968010 67.737 -80.0971
7.018504 67.813 -80.7231
7.069362 67.889 -81.3470
7.120590 67.965 -81.9688
7.172189 68.040 -82.5887
7.224161 68.115 -83.2067
7.276511 68.190 -83.8227
7.329239 68.265 -84.4370
7.382350 68.340 -85.0497
7.435845 68.415 -85.6608
7.489729 68.489 -86.2706
7.544002 68.564 -86.8793
7.598669 68.638 -87.4871
7.653732 68.712 -88.0942
7.709194 68.787 -88.7009
7.765058 68.861 -89.3072
7.821327 68.935 -89.9133
7.878004 69.009 -90.5195
7.935091 69.084 -91.1259
7.992592 69.158 -91.7328
8.050510 69.232 -92.3403
8.108847 69.306 -92.9485
8.167607 69.379 -93.5577
8.226793 69.453 -94.1678
8.286408 69.526 -94.7789
8.346454 69.600 -95.3912
8.406936 69.673 -96.0046
8.467856 69.745 -96.6192
8.529218 69.818 -97.2351
8.591024 69.890 -97.8522
8.653278 69.962 -98.4703
8.715983 70.033 -99.0894
8.779143 70.104 -99.7094
8.842760 70.175 -100.3303
8.906839 70.245 -100.9519
8.971381 70.315 -101.5741
9.036392 70.384 -102.1967
9.101873 70.453 -102.8196
9.167829 70.522 -103.4425
9.234263 70.590 -104.0653
9.301178 70.658 -104.6881
9.368578 70.725 -105.3106
9.436467 70.792 -105.9326
9.504847 70.859 -106.5541
9.573723 70.925 -107.1750
9.643099 70.991 -107.7953
9.712976 71.057 -108.4149
9.783361 71.122 -109.0339
9.854255 71.188 -109.6523
9.925663 71.253 -110.2702
9.997588 71.318 -110.8877
10.070035 71.383 -111.5049
10.143007 71.447 -112.1219
10.216507 71.512 -112.7391
10.290540 71.577 -113.3566
10.365109 71.641 -113.9746
10.440219 71.705 -114.5933
10.515873 71.770 -115.2130
10.592076 71.834 -115.8340
10.668830 71.898 -116.4563
10.746141 71.962 -117.0803
10.824012 72.025 -117.7061
10.902447 72.089 -118.3338
10.981451 72.152 -118.9636
11.061027 72.215 -119.5954
11.141180 72.278 -120.2292
11.221913 72.340 -120.8651
11.303232 72.402 -121.5028
11.385140 72.463 -122.1423
11.467641 72.524 -122.7833
11.550741 72.584 -123.4255
11.634442 72.644 -124.0686
11.718750 72.703 -124.7123
11.803669 72.761 -125.3563
11.889203 72.819 -126.0002
11.975357 72.876 -126.6437
12.062136 72.933 -127.2863
12.149543 72.990 -127.9279
12.237583 73.046 -128.5682
12.326262 73.101 -129.2071
12.415583 73.157 -129.8444
12.505552 73.212 -130.4801
12.596172 73.267 -131.1143
12.687449 73.322 -131.7472
12.779387 73.377 -132.3790
12.871992 73.432 -133.0102
12.965268 73.487 -133.6410
13.059220 73.543 -134.2720
13.153852 73.598 -134.9038
13.249170 73.654 -135.5368
13.345179 73.710 -136.1714
13.441884 73.765 -136.8083
13.539289 73.821 -137.4478
13.637401 73.877 -138.0903
13.736223 73.933 -138.7359
13.835761 73.988 -139.3846
13.936021 74.043 -140.0366
14.037007 74.098 -140.6915
14.138725 74.152 -141.3489
14.241180 74.206 -142.0085
14.344377 74.259 -142.6696
14.448323 74.311 -143.3316
14.553021 74.363 -143.9938
14.658478 74.414 -144.6554
14.764700 74.465 -145.3159
14.871691 74.515 -145.9746
14.979457 74.565 -146.6312
15.088005 74.614 -147.2852
15.197339 74.664 -147.9367
15.307465 74.713 -148.5858
15.418389 74.763 -149.2328
15.530117 74.813 -149.8782
15.642655 74.864 -150.5229
15.756008 74.915 -151.1678
15.870182 74.966 -151.8138
15.985184 75.018 -152.4620
16.101019 75.071 -153.1135
16.217694 75.124 -153.7692
16.335214 75.177 -154.4299
16.453586 75.230 -155.0961
16.572815 75.284 -155.7683
16.692909 75.336 -156.4465
16.813872 75.389 -157.1304
16.935713 75.441 -157.8196
17.058436 75.492 -158.5133
17.182048 75.542 -159.2105
17.306556 75.591 -159.9102
17.431967 75.639 -160.6112
17.558286 75.686 -161.3124
17.685521 75.732 -162.0129
17.813677 75.778 -162.7117
17.942762 75.823 -163.4082
18.072783 75.867 -164.1021
18.203746 75.911 -164.7932
18.335658 75.956 -165.4818
18.468526 76.000 -166.1683
18.602356 76.044 -166.8533
18.737156 76.088 -167.5376
18.872934 76.133 -168.2220
19.009695 76.177 -168.9074
19.147447 76.222 -169.5944
19.286197 76.267 -170.2837
19.425953 76.312 -170.9756
19.566721 76.356 -171.6703
19.708510 76.401 -172.3679
19.851326 76.445 -173.0680
19.995177 76.489 -173.7702
20.140070 76.532 -174.4742
20.286013 76.575 -175.1793
20.433014 76.617 -175.8849
20.581080 76.659 -176.5907
20.730219 76.701 -177.2963
20.880439 76.742 -178.0014
21.031747 76.784 -178.7062
21.184152 76.826 -179.4108
21.337661 76.867 179.8844
21.492282 76.909 179.1788
21.648024 76.952 178.4716
21.804895 76.994 177.7622
21.962902 77.037 177.0496
22.122054 77.080 176.3332
22.282360 77.123 175.6122
22.443827 77.167 174.8863
22.606464 77.210 174.1553
22.770280 77.253 173.4194
22.935283 77.295 172.6792
23.101481 77.337 171.9355
23.268884 77.378 171.1895
23.437500 77.419 170.4423
23.607338 77.460 169.6953
23.778406 77.500 168.9495
23.950714 77.539 168.2056
24.124271 77.580 167.4638
24.299086 77.620 166.7236
24.475167 77.662 165.9838
24.652524 77.704 165.2426
24.831166 77.748 164.4978
25.011103 77.793 163.7470
25.192344 77.838 162.9880
25.374898 77.884 162.2189
25.558775 77.930 161.4388
25.743984 77.976 160.6476
25.930536 78.021 159.8464
26.118439 78.064 159.0372
26.307704 78.106 158.2228
26.498341 78.147 157.4061
26.690359 78.186 156.5903
26.883768 78.224 155.7777
27.078579 78.261 154.9701
27.274801 78.298 154.1680
27.472446 78.335 153.3712
27.671522 78.373 152.5782
27.872042 78.412 151.7874
28.074014 78.452 150.9966
28.277450 78.492 150.2040
28.482360 78.533 149.4080
28.688755 78.575 148.6073
28.896645 78.618 147.8011
29.106042 78.661 146.9890
29.316957 78.704 146.1700
29.529400 78.748 145.3434
29.743382 78.792 144.5084
29.958915 78.836 143.6639
30.176009 78.880 142.8093
30.394677 78.924 141.9443
30.614929 78.966 141.0696
30.836778 79.007 140.1872
31.060234 79.046 139.2993
31.285309 79.084 138.4094
31.512015 79.120 137.5207
31.740364 79.155 136.6362
31.970368 79.188 135.7582
32.202039 79.222 134.8876
32.435388 79.255 134.0244
32.670428 79.289 133.1673
32.907171 79.324 132.3141
33.145630 79.361 131.4619
33.385817 79.398 130.6074
33.627745 79.437 129.7477
33.871425 79.476 128.8799
34.116871 79.516 128.0021
34.364096 79.555 127.1137
34.613113 79.593 126.2156
34.863934 79.630 125.3104
35.116572 79.664 124.4023
35.371041 79.697 123.4961
35.627354 79.728 122.5964
35.885525 79.759 121.7062
36.145566 79.790 120.8264
36.407492 79.821 119.9546
36.671316 79.855 119.0863
36.937051 79.891 118.2156
37.204712 79.928 117.3366
37.474313 79.967 116.4452
37.745867 80.006 115.5396
38.019389 80.045 114.6206
38.294893 80.084 113.6906
38.572394 80.122 112.7523
38.851905 80.159 111.8076
39.133442 80.196 110.8571
39.417019 80.234 109.9000
39.702651 80.272 108.9354
39.990353 80.310 107.9626
40.280140 80.348 106.9822
40.572026 80.385 105.9957
40.866028 80.422 105.0051
41.162160 80.460 104.0116
41.460438 80.498 103.0152
41.760877 80.536 102.0144
42.063494 80.575 101.0071
42.368303 80.615 99.9914
42.675322 80.655 98.9664
42.984565 80.693 97.9334
43.296048 80.731 96.8951
43.609789 80.768 95.8548
43.925804 80.804 94.8157
44.244108 80.839 93.7793
44.564719 80.874 92.7452
44.887654 80.910 91.7115
45.212928 80.946 90.6755
45.540560 80.982 89.6347
45.870565 81.019 88.5878
46.202962 81.055 87.5345
46.537768 81.090 86.4754
46.875000 81.126 85.4110
47.214676 81.161 84.3413
47.556813 81.197 83.2654
47.901429 81.233 82.1823
48.248542 81.269 81.0910
48.598171 81.305 79.9909
48.950334 81.341 78.8817
49.305048 81.378 77.7625
49.662333 81.416 76.6319
50.022206 81.453 75.4887
50.384688 81.491 74.3327
50.749796 81.527 73.1657
51.117550 81.562 71.9916
51.487969 81.596 70.8158
51.861072 81.629 69.6432
52.236879 81.662 68.4764
52.615409 81.696 67.3154
52.996681 81.731 66.1568
53.380717 81.767 64.9954
53.767536 81.805 63.8256
54.157158 81.844 62.6425
54.549603 81.883 61.4439
54.944892 81.920 60.2304
55.343045 81.955 59.0052
55.744084 81.988 57.7737
56.148028 82.018 56.5416
56.554900 82.047 55.3143
56.964720 82.074 54.0954
57.377510 82.102 52.8857
57.793291 82.132 51.6822
58.212085 82.165 50.4789
58.633914 82.200 49.2679
59.058799 82.239 48.0432
59.486764 82.279 46.8026
59.917829 82.320 45.5484
60.352019 82.362 44.2855
60.789354 82.406 43.0175
61.229859 82.453 41.7434
61.673556 82.504 40.4571
62.120468 82.557 39.1503
62.570618 82.612 37.8163
63.024031 82.666 36.4543
63.480729 82.718 35.0694
63.940736 82.768 33.6701
64.404077 82.815 32.2631
64.870776 82.860 30.8501
65.340856 82.903 29.4284
65.814343 82.945 27.9949
66.291261 82.983 26.5494
66.771635 83.019 25.0958
67.255489 83.053 23.6376
67.742850 83.086 22.1743
68.233743 83.119 20.7007
68.728193 83.153 19.2095
69.226226 83.188 17.6957
69.727867 83.222 16.1595
70.233144 83.257 14.6049
70.742083 83.291 13.0362
71.254709 83.327 11.4550
71.771050 83.363 9.8593
72.291132 83.401 8.2463
72.814984 83.438 6.6158
73.342631 83.474 4.9720
73.874102 83.507 3.3223
74.409424 83.538 1.6732
74.948626 83.568 0.0266
75.491734 83.596 -1.6205
76.038779 83.624 -3.2738
76.589787 83.650 -4.9382
77.144788 83.674 -6.6166
77.703811 83.696 -8.3097
78.266885 83.716 -10.0170
78.834039 83.735 -11.7383
79.405303 83.752 -13.4745
79.980706 83.769 -15.2280
80.560280 83.784 -16.9999
81.144053 83.798 -18.7886
81.732056 83.811 -20.5890
82.324320 83.821 -22.3958
82.920876 83.829 -24.2050
83.521755 83.836 -26.0151
84.126988 83.841 -27.8256
84.736607 83.844 -29.6363
85.350643 83.845 -31.4482
85.969129 83.844 -33.2626
86.592097 83.842 -35.0804
87.219579 83.838 -36.9030
87.851608 83.833 -38.7329
88.488217 83.828 -40.5731
89.129439 83.822 -42.4248
89.775308 83.814 -44.2871
90.425856 83.805 -46.1583
91.081119 83.795 -48.0369
91.741131 83.783 -49.9214
92.405925 83.769 -51.8095
93.075536 83.753 -53.6987
93.750000 83.734 -55.5866
94.429351 83.713 -57.4706
95.113625 83.690 -59.3479
95.802858 83.665 -61.2168
96.497085 83.641 -63.0775
97.196342 83.616 -64.9331
97.900667 83.593 -66.7882
98.610096 83.570 -68.6475
99.324665 83.547 -70.5142
