* Measurement data measured by REW V5.31.3
* Source: Headset (2- CX31993 HIFI AUDIO), MICROPHONE (Master Volume), R, volume: 0.400
* Format: 256k Log Swept Sine, 1 sweep at -12.0 dBFS with no timing reference
* Dated: 09 24, 24 3:17:45 PM
* REW Settings:
*  C-weighting compensation: Off
*  Target level: 75.0 dB
* Note: ; 
* Measurement: DUSK L
* Smoothing: 1/12 octave
* Frequency Step: 96 ppo
* Start Frequency: 0.36621094 Hz
*
* Freq(Hz) SPL(dB) Phase(degrees)
0.366211 53.170 -31.9870
0.368865 53.187 -32.0816
0.371538 53.212 -32.2219
0.374230 53.243 -32.3959
0.376942 53.278 -32.5927
0.379673 53.315 -32.8049
0.382424 53.353 -33.0272
0.385196 53.393 -33.2566
0.387987 53.434 -33.4912
0.390798 53.474 -33.7300
0.393630 53.516 -33.9724
0.396483 53.557 -34.2181
0.399356 53.599 -34.4670
0.402250 53.641 -34.7190
0.405165 53.684 -34.9741
0.408101 53.727 -35.2322
0.411058 53.770 -35.4933
0.414037 53.814 -35.7573
0.417037 53.857 -36.0244
0.420059 53.901 -36.2944
0.423103 53.946 -36.5673
0.426169 53.991 -36.8433
0.429257 54.036 -37.1221
0.432368 54.081 -37.4039
0.435501 54.127 -37.6885
0.438656 54.173 -37.9761
0.441835 54.219 -38.2666
0.445037 54.266 -38.5600
0.448262 54.313 -38.8563
0.451510 54.361 -39.1554
0.454782 54.408 -39.4575
0.458077 54.457 -39.7624
0.461397 54.505 -40.0702
0.464740 54.554 -40.3808
0.468108 54.603 -40.6944
0.471500 54.653 -41.0108
0.474917 54.703 -41.3301
0.478358 54.753 -41.6523
0.481825 54.803 -41.9774
0.485316 54.854 -42.3054
0.488833 54.906 -42.6364
0.492375 54.957 -42.9702
0.495943 55.010 -43.3071
0.499537 55.062 -43.6469
0.503157 55.115 -43.9897
0.506803 55.168 -44.3355
0.510475 55.222 -44.6844
0.514175 55.276 -45.0364
0.517900 55.330 -45.3915
0.521653 55.385 -45.7498
0.525434 55.440 -46.1112
0.529241 55.496 -46.4759
0.533076 55.552 -46.8439
0.536939 55.608 -47.2152
0.540830 55.665 -47.5899
0.544749 55.722 -47.9681
0.548696 55.780 -48.3497
0.552673 55.838 -48.7350
0.556677 55.897 -49.1239
0.560711 55.956 -49.5165
0.564774 56.015 -49.9129
0.568867 56.075 -50.3131
0.572989 56.135 -50.7174
0.577141 56.195 -51.1257
0.581324 56.257 -51.5381
0.585536 56.318 -51.9548
0.589779 56.380 -52.3758
0.594053 56.443 -52.8012
0.598358 56.505 -53.2313
0.602694 56.569 -53.6660
0.607061 56.633 -54.1055
0.611460 56.697 -54.5499
0.615891 56.761 -54.9994
0.620354 56.827 -55.4541
0.624849 56.892 -55.9141
0.629377 56.958 -56.3796
0.633938 57.025 -56.8507
0.638532 57.092 -57.3276
0.643159 57.160 -57.8104
0.647819 57.228 -58.2994
0.652514 57.296 -58.7946
0.657242 57.366 -59.2962
0.662005 57.435 -59.8045
0.666802 57.505 -60.3196
0.671634 57.576 -60.8417
0.676501 57.647 -61.3710
0.681403 57.718 -61.9077
0.686341 57.791 -62.4519
0.691314 57.863 -63.0039
0.696324 57.937 -63.5639
0.701370 58.010 -64.1320
0.706452 58.085 -64.7082
0.711571 58.160 -65.2928
0.716728 58.236 -65.8855
0.721921 58.313 -66.4860
0.727153 58.392 -67.0938
0.732422 58.471 -67.7080
0.737729 58.553 -68.3274
0.743075 58.636 -68.9509
0.748460 58.721 -69.5771
0.753883 58.806 -70.2052
0.759346 58.894 -70.8344
0.764849 58.982 -71.4642
0.770391 59.071 -72.0941
0.775974 59.162 -72.7238
0.781597 59.254 -73.3529
0.787261 59.346 -73.9813
0.792966 59.440 -74.6087
0.798712 59.535 -75.2350
0.804500 59.631 -75.8600
0.810329 59.727 -76.4836
0.816201 59.825 -77.1057
0.822116 59.924 -77.7263
0.828073 60.024 -78.3453
0.834074 60.125 -78.9626
0.840118 60.227 -79.5783
0.846206 60.330 -80.1924
0.852338 60.434 -80.8050
0.858514 60.539 -81.4161
0.864735 60.644 -82.0257
0.871001 60.751 -82.6341
0.877313 60.859 -83.2413
0.883670 60.967 -83.8475
0.890074 61.077 -84.4528
0.896524 61.187 -85.0574
0.903020 61.298 -85.6615
0.909564 61.410 -86.2653
0.916155 61.523 -86.8691
0.922794 61.636 -87.4731
0.929481 61.751 -88.0775
0.936216 61.866 -88.6825
0.943000 61.982 -89.2886
0.949834 62.098 -89.8960
0.956717 62.216 -90.5050
0.963649 62.334 -91.1158
0.970632 62.452 -91.7289
0.977666 62.571 -92.3446
0.984750 62.691 -92.9633
0.991886 62.811 -93.5852
0.999074 62.931 -94.2108
1.006314 63.053 -94.8405
1.013606 63.174 -95.4746
1.020951 63.296 -96.1136
1.028349 63.418 -96.7578
1.035801 63.540 -97.4077
1.043307 63.663 -98.0637
1.050867 63.786 -98.7262
1.058482 63.909 -99.3955
1.066152 64.032 -100.0720
1.073878 64.155 -100.7558
1.081660 64.279 -101.4469
1.089498 64.402 -102.1452
1.097393 64.526 -102.8500
1.105345 64.650 -103.5605
1.113355 64.775 -104.2756
1.121423 64.899 -104.9943
1.129549 65.025 -105.7155
1.137734 65.151 -106.4386
1.145979 65.277 -107.1628
1.154283 65.404 -107.8876
1.162647 65.532 -108.6125
1.171072 65.660 -109.3370
1.179558 65.789 -110.0609
1.188106 65.919 -110.7839
1.196715 66.049 -111.5058
1.205387 66.179 -112.2262
1.214122 66.310 -112.9451
1.222920 66.441 -113.6623
1.231782 66.573 -114.3778
1.240708 66.706 -115.0915
1.249699 66.839 -115.8033
1.258754 66.972 -116.5133
1.267876 67.106 -117.2215
1.277063 67.240 -117.9280
1.286318 67.374 -118.6328
1.295639 67.509 -119.3362
1.305027 67.644 -120.0382
1.314484 67.780 -120.7391
1.324009 67.915 -121.4390
1.333604 68.052 -122.1383
1.343268 68.188 -122.8371
1.353002 68.324 -123.5357
1.362806 68.461 -124.2344
1.372681 68.598 -124.9336
1.382628 68.735 -125.6336
1.392647 68.872 -126.3348
1.402739 69.009 -127.0374
1.412904 69.147 -127.7420
1.423142 69.284 -128.4487
1.433455 69.421 -129.1580
1.443843 69.559 -129.8699
1.454305 69.696 -130.5846
1.464844 69.833 -131.3018
1.475459 69.970 -132.0212
1.486150 70.107 -132.7422
1.496920 70.244 -133.4645
1.507767 70.382 -134.1873
1.518693 70.519 -134.9105
1.529698 70.656 -135.6335
1.540783 70.792 -136.3563
1.551948 70.929 -137.0785
1.563194 71.066 -137.8001
1.574521 71.203 -138.5210
1.585931 71.340 -139.2412
1.597423 71.476 -139.9607
1.608999 71.613 -140.6795
1.620658 71.750 -141.3979
1.632402 71.886 -142.1158
1.644232 72.022 -142.8335
1.656146 72.159 -143.5512
1.668147 72.295 -144.2692
1.680235 72.431 -144.9876
1.692411 72.567 -145.7069
1.704675 72.703 -146.4274
1.717028 72.839 -147.1494
1.729470 72.975 -147.8733
1.742003 73.110 -148.5995
1.754626 73.246 -149.3287
1.767341 73.381 -150.0611
1.780147 73.517 -150.7974
1.793047 73.652 -151.5380
1.806040 73.787 -152.2836
1.819128 73.922 -153.0345
1.832310 74.057 -153.7912
1.845587 74.191 -154.5538
1.858961 74.325 -155.3222
1.872432 74.458 -156.0961
1.886001 74.592 -156.8749
1.899667 74.724 -157.6579
1.913433 74.857 -158.4446
1.927299 74.988 -159.2340
1.941265 75.120 -160.0256
1.955332 75.251 -160.8187
1.969501 75.381 -161.6128
1.983773 75.511 -162.4073
1.998148 75.640 -163.2017
2.012627 75.770 -163.9957
2.027212 75.898 -164.7889
2.041902 76.027 -165.5812
2.056698 76.155 -166.3722
2.071602 76.282 -167.1620
2.086614 76.409 -167.9504
2.101734 76.536 -168.7375
2.116964 76.663 -169.5235
2.132304 76.789 -170.3086
2.147756 76.915 -171.0932
2.163320 77.040 -171.8781
2.178996 77.165 -172.6641
2.194786 77.290 -173.4521
2.210690 77.414 -174.2433
2.226710 77.537 -175.0385
2.242845 77.660 -175.8382
2.259098 77.782 -176.6423
2.275468 77.903 -177.4505
2.291957 78.023 -178.2622
2.308566 78.143 -179.0766
2.325295 78.262 -179.8930
2.342145 78.380 179.2894
2.359117 78.498 178.4715
2.376212 78.615 177.6539
2.393431 78.731 176.8374
2.410775 78.847 176.0225
2.428244 78.962 175.2098
2.445840 79.076 174.3997
2.463564 79.190 173.5925
2.481416 79.303 172.7885
2.499397 79.416 171.9875
2.517509 79.528 171.1893
2.535752 79.640 170.3930
2.554127 79.751 169.5977
2.572635 79.861 168.8020
2.591277 79.970 168.0045
2.610055 80.079 167.2041
2.628968 80.186 166.4005
2.648019 80.293 165.5936
2.667208 80.399 164.7839
2.686535 80.503 163.9722
2.706003 80.607 163.1593
2.725612 80.710 162.3463
2.745363 80.812 161.5340
2.765257 80.913 160.7235
2.785295 81.014 159.9157
2.805478 81.114 159.1114
2.825808 81.213 158.3113
2.846285 81.311 157.5161
2.866910 81.409 156.7260
2.887685 81.506 155.9407
2.908611 81.602 155.1598
2.929688 81.698 154.3821
2.950917 81.793 153.6063
2.972301 81.887 152.8310
2.993839 81.980 152.0552
3.015534 82.071 151.2788
3.037386 82.162 150.5018
3.059396 82.252 149.7247
3.081565 82.341 148.9484
3.103896 82.429 148.1738
3.126388 82.516 147.4019
3.149043 82.602 146.6338
3.171862 82.688 145.8704
3.194847 82.773 145.1125
3.217998 82.858 144.3611
3.241317 82.942 143.6163
3.264805 83.025 142.8783
3.288463 83.108 142.1464
3.312293 83.189 141.4198
3.336295 83.271 140.6974
3.360471 83.351 139.9782
3.384822 83.430 139.2617
3.409350 83.509 138.5479
3.434056 83.587 137.8367
3.458940 83.664 137.1289
3.484005 83.740 136.4250
3.509252 83.816 135.7257
3.534681 83.891 135.0318
3.560295 83.966 134.3441
3.586094 84.041 133.6631
3.612081 84.115 132.9893
3.638255 84.189 132.3229
3.664620 84.263 131.6636
3.691175 84.336 131.0109
3.717923 84.409 130.3642
3.744864 84.482 129.7229
3.772001 84.554 129.0867
3.799335 84.625 128.4554
3.826866 84.697 127.8290
3.854597 84.768 127.2075
3.882529 84.838 126.5911
3.910664 84.909 125.9800
3.939002 84.980 125.3747
3.967546 85.051 124.7752
3.996296 85.122 124.1818
4.025255 85.193 123.5946
4.054423 85.264 123.0136
4.083804 85.336 122.4385
4.113396 85.407 121.8691
4.143204 85.479 121.3050
4.173227 85.550 120.7457
4.203468 85.622 120.1907
4.233928 85.694 119.6396
4.264609 85.766 119.0921
4.295512 85.838 118.5478
4.326639 85.911 118.0066
4.357992 85.984 117.4683
4.389572 86.058 116.9330
4.421380 86.132 116.4006
4.453419 86.206 115.8714
4.485691 86.281 115.3452
4.518196 86.356 114.8216
4.550936 86.432 114.3001
4.583914 86.508 113.7802
4.617131 86.584 113.2612
4.650589 86.660 112.7426
4.684289 86.737 112.2237
4.718233 86.814 111.7043
4.752424 86.891 111.1840
4.786862 86.969 110.6629
4.821549 87.047 110.1411
4.856488 87.125 109.6184
4.891680 87.204 109.0949
4.927127 87.282 108.5702
4.962831 87.361 108.0440
4.998794 87.440 107.5159
5.035017 87.518 106.9855
5.071503 87.597 106.4522
5.108253 87.676 105.9158
5.145270 87.754 105.3760
5.182555 87.832 104.8329
5.220110 87.910 104.2864
5.257937 87.988 103.7367
5.296038 88.065 103.1839
5.334415 88.142 102.6283
5.373071 88.218 102.0698
5.412006 88.294 101.5085
5.451224 88.369 100.9441
5.490725 88.443 100.3765
5.530514 88.517 99.8055
5.570590 88.590 99.2311
5.610957 88.662 98.6533
5.651616 88.733 98.0728
5.692570 88.803 97.4900
5.733821 88.872 96.9056
5.775370 88.940 96.3200
5.817221 89.007 95.7335
5.859375 89.073 95.1460
5.901834 89.137 94.5575
5.944602 89.200 93.9679
5.987679 89.262 93.3776
6.031068 89.322 92.7871
6.074771 89.381 92.1974
6.118792 89.439 91.6093
6.163131 89.496 91.0236
6.207792 89.551 90.4407
6.252776 89.604 89.8607
6.298086 89.656 89.2837
6.343725 89.707 88.7098
6.389694 89.756 88.1395
6.435996 89.804 87.5738
6.482634 89.850 87.0134
6.529610 89.896 86.4593
6.576926 89.940 85.9120
6.624585 89.983 85.3720
6.672590 90.024 84.8392
6.720942 90.065 84.3138
6.769645 90.104 83.7961
6.818700 90.143 83.2867
6.868111 90.181 82.7862
6.917881 90.218 82.2950
6.968010 90.254 81.8136
7.018504 90.290 81.3422
7.069362 90.326 80.8806
7.120590 90.361 80.4286
7.172189 90.396 79.9861
7.224161 90.431 79.5529
7.276511 90.466 79.1288
7.329239 90.502 78.7140
7.382350 90.537 78.3081
7.435845 90.574 77.9108
7.489729 90.611 77.5212
7.544002 90.648 77.1385
7.598669 90.687 76.7616
7.653732 90.726 76.3895
7.709194 90.767 76.0216
7.765058 90.808 75.6573
7.821327 90.851 75.2956
7.878004 90.894 74.9353
7.935091 90.939 74.5750
7.992592 90.985 74.2132
8.050510 91.031 73.8487
8.108847 91.079 73.4807
8.167607 91.128 73.1083
8.226793 91.177 72.7308
8.286408 91.227 72.3470
8.346454 91.278 71.9560
8.406936 91.329 71.5568
8.467856 91.380 71.1487
8.529218 91.431 70.7315
8.591024 91.482 70.3051
8.653278 91.532 69.8694
8.715983 91.582 69.4247
8.779143 91.631 68.9707
8.842760 91.679 68.5078
8.906839 91.725 68.0363
8.971381 91.771 67.5573
9.036392 91.815 67.0716
9.101873 91.857 66.5805
9.167829 91.897 66.0848
9.234263 91.936 65.5856
9.301178 91.972 65.0840
9.368578 92.007 64.5813
9.436467 92.039 64.0791
9.504847 92.070 63.5790
9.573723 92.099 63.0820
9.643099 92.126 62.5893
9.712976 92.151 62.1019
9.783361 92.175 61.6208
9.854255 92.198 61.1470
9.925663 92.219 60.6815
9.997588 92.240 60.2246
10.070035 92.259 59.7765
10.143007 92.279 59.3371
10.216507 92.298 58.9064
10.290540 92.317 58.4841
10.365109 92.336 58.0697
10.440219 92.355 57.6624
10.515873 92.375 57.2611
10.592076 92.395 56.8647
10.668830 92.416 56.4722
10.746141 92.438 56.0823
10.824012 92.460 55.6939
10.902447 92.483 55.3059
10.981451 92.506 54.9171
11.061027 92.530 54.5264
11.141180 92.553 54.1334
11.221913 92.577 53.7376
11.303232 92.601 53.3385
11.385140 92.625 52.9362
11.467641 92.648 52.5306
11.550741 92.671 52.1223
11.634442 92.693 51.7119
11.718750 92.715 51.3000
11.803669 92.735 50.8876
11.889203 92.755 50.4755
11.975357 92.774 50.0646
12.062136 92.792 49.6559
12.149543 92.809 49.2501
12.237583 92.826 48.8478
12.326262 92.842 48.4493
12.415583 92.858 48.0550
12.505552 92.874 47.6647
12.596172 92.890 47.2781
12.687449 92.906 46.8948
12.779387 92.921 46.5140
12.871992 92.938 46.1349
12.965268 92.954 45.7566
13.059220 92.971 45.3781
13.153852 92.987 44.9987
13.249170 93.004 44.6176
13.345179 93.020 44.2343
13.441884 93.036 43.8488
13.539289 93.052 43.4612
13.637401 93.066 43.0720
13.736223 93.080 42.6820
13.835761 93.092 42.2923
13.936021 93.104 41.9044
14.037007 93.114 41.5195
14.138725 93.123 41.1394
14.241180 93.131 40.7654
14.344377 93.138 40.3988
14.448323 93.145 40.0406
14.553021 93.152 39.6910
14.658478 93.158 39.3502
14.764700 93.165 39.0175
14.871691 93.173 38.6918
14.979457 93.181 38.3712
15.088005 93.191 38.0537
15.197339 93.202 37.7370
15.307465 93.214 37.4184
15.418389 93.227 37.0955
15.530117 93.241 36.7662
15.642655 93.255 36.4291
15.756008 93.269 36.0831
15.870182 93.283 35.7282
15.985184 93.295 35.3652
16.101019 93.306 34.9956
16.217694 93.315 34.6220
16.335214 93.322 34.2472
16.453586 93.326 33.8748
16.572815 93.329 33.5082
16.692909 93.330 33.1508
16.813872 93.330 32.8054
16.935713 93.328 32.4742
17.058436 93.327 32.1582
17.182048 93.326 31.8574
17.306556 93.326 31.5703
17.431967 93.329 31.2944
17.558286 93.333 31.0262
17.685521 93.341 30.7613
17.813677 93.350 30.4950
17.942762 93.363 30.2226
18.072783 93.377 29.9400
18.203746 93.393 29.6439
18.335658 93.410 29.3320
18.468526 93.428 29.0036
18.602356 93.444 28.6592
18.737156 93.459 28.3007
18.872934 93.473 27.9310
19.009695 93.484 27.5538
19.147447 93.494 27.1731
19.286197 93.501 26.7928
19.425953 93.506 26.4167
19.566721 93.509 26.0477
19.708510 93.511 25.6876
19.851326 93.513 25.3376
19.995177 93.514 24.9977
20.140070 93.515 24.6672
20.286013 93.517 24.3450
20.433014 93.519 24.0297
20.581080 93.522 23.7198
20.730219 93.525 23.4146
20.880439 93.529 23.1134
21.031747 93.533 22.8163
21.184152 93.537 22.5233
21.337661 93.541 22.2352
21.492282 93.546 21.9520
21.648024 93.551 21.6738
21.804895 93.557 21.3998
21.962902 93.564 21.1285
22.122054 93.572 20.8578
22.282360 93.582 20.5852
22.443827 93.592 20.3079
22.606464 93.603 20.0234
22.770280 93.614 19.7301
22.935283 93.624 19.4271
23.101481 93.633 19.1152
23.268884 93.641 18.7962
23.437500 93.646 18.4730
23.607338 93.648 18.1494
23.778406 93.648 17.8295
23.950714 93.646 17.5172
24.124271 93.642 17.2158
24.299086 93.636 16.9277
24.475167 93.629 16.6539
24.652524 93.621 16.3945
24.831166 93.614 16.1484
25.011103 93.606 15.9141
25.192344 93.600 15.6893
25.374898 93.594 15.4719
25.558775 93.589 15.2595
25.743984 93.585 15.0502
25.930536 93.582 14.8419
26.118439 93.579 14.6327
26.307704 93.577 14.4208
26.498341 93.576 14.2043
26.690359 93.574 13.9819
26.883768 93.573 13.7526
27.078579 93.571 13.5164
27.274801 93.568 13.2739
27.472446 93.563 13.0273
27.671522 93.558 12.7792
27.872042 93.550 12.5323
28.074014 93.542 12.2894
28.277450 93.533 12.0522
28.482360 93.523 11.8212
28.688755 93.514 11.5955
28.896645 93.504 11.3728
29.106042 93.496 11.1506
29.316957 93.488 10.9264
29.529400 93.480 10.6987
29.743382 93.471 10.4674
29.958915 93.462 10.2339
30.176009 93.452 10.0007
30.394677 93.441 9.7708
30.614929 93.429 9.5466
30.836778 93.417 9.3295
31.060234 93.405 9.1193
31.285309 93.394 8.9142
31.512015 93.384 8.7116
31.740364 93.375 8.5087
31.970368 93.366 8.3032
32.202039 93.358 8.0936
32.435388 93.350 7.8799
32.670428 93.341 7.6627
32.907171 93.331 7.4437
33.145630 93.321 7.2244
33.385817 93.310 7.0065
33.627745 93.299 6.7919
33.871425 93.286 6.5822
34.116871 93.273 6.3790
34.364096 93.260 6.1833
34.613113 93.247 5.9956
34.863934 93.234 5.8151
35.116572 93.222 5.6395
35.371041 93.212 5.4656
35.627354 93.202 5.2900
35.885525 93.194 5.1099
36.145566 93.185 4.9243
36.407492 93.176 4.7337
36.671316 93.167 4.5399
36.937051 93.156 4.3450
37.204712 93.146 4.1503
37.474313 93.135 3.9553
37.745867 93.125 3.7589
38.019389 93.114 3.5593
38.294893 93.103 3.3561
38.572394 93.091 3.1509
38.851905 93.078 2.9471
39.133442 93.064 2.7491
39.417019 93.049 2.5601
39.702651 93.035 2.3806
39.990353 93.022 2.2085
40.280140 93.011 2.0389
40.572026 93.002 1.8666
40.866028 92.994 1.6874
41.162160 92.987 1.4998
41.460438 92.979 1.3051
41.760877 92.971 1.1061
42.063494 92.962 0.9064
42.368303 92.952 0.7082
42.675322 92.942 0.5125
42.984565 92.931 0.3188
43.296048 92.920 0.1268
43.609789 92.907 -0.0629
43.925804 92.892 -0.2473
44.244108 92.875 -0.4203
44.564719 92.855 -0.5745
44.887654 92.835 -0.7029
45.212928 92.814 -0.8022
45.540560 92.796 -0.8755
45.870565 92.781 -0.9327
46.202962 92.770 -0.9873
46.537768 92.762 -1.0527
46.875000 92.755 -1.1375
47.214676 92.749 -1.2430
47.556813 92.741 -1.3658
47.901429 92.731 -1.5002
48.248542 92.720 -1.6422
48.598171 92.706 -1.7898
48.950334 92.691 -1.9412
49.305048 92.674 -2.0933
49.662333 92.656 -2.2410
50.022206 92.636 -2.3804
50.384688 92.617 -2.5105
50.749796 92.598 -2.6347
51.117550 92.581 -2.7567
51.487969 92.563 -2.8772
51.861072 92.545 -2.9918
52.236879 92.528 -3.0940
52.615409 92.511 -3.1809
52.996681 92.497 -3.2561
53.380717 92.485 -3.3276
53.767536 92.475 -3.4028
54.157158 92.466 -3.4834
54.549603 92.458 -3.5669
54.944892 92.449 -3.6514
55.343045 92.442 -3.7403
55.744084 92.436 -3.8419
56.148028 92.429 -3.9634
56.554900 92.420 -4.1050
56.964720 92.407 -4.2593
57.377510 92.391 -4.4164
57.793291 92.372 -4.5697
58.212085 92.352 -4.7189
58.633914 92.332 -4.8667
59.058799 92.310 -5.0147
59.486764 92.288 -5.1606
59.917829 92.265 -5.2998
60.352019 92.242 -5.4294
60.789354 92.221 -5.5499
61.229859 92.202 -5.6655
61.673556 92.185 -5.7803
62.120468 92.169 -5.8964
62.570618 92.153 -6.0114
63.024031 92.137 -6.1195
63.480729 92.121 -6.2156
63.940736 92.107 -6.2980
64.404077 92.094 -6.3705
64.870776 92.082 -6.4404
65.340856 92.072 -6.5135
65.814343 92.062 -6.5917
66.291261 92.052 -6.6729
66.771635 92.041 -6.7561
67.255489 92.031 -6.8433
67.742850 92.020 -6.9383
68.233743 92.008 -7.0435
68.728193 91.996 -7.1579
69.226226 91.982 -7.2801
69.727867 91.967 -7.4110
70.233144 91.951 -7.5522
70.742083 91.931 -7.7001
71.254709 91.907 -7.8419
71.771050 91.880 -7.9611
72.291132 91.851 -8.0475
72.814984 91.824 -8.1042
73.342631 91.800 -8.1433
73.874102 91.778 -8.1763
74.409424 91.759 -8.2083
74.948626 91.740 -8.2413
75.491734 91.723 -8.2788
76.038779 91.707 -8.3254
76.589787 91.690 -8.3827
77.144788 91.672 -8.4470
77.703811 91.652 -8.5125
78.266885 91.631 -8.5752
78.834039 91.609 -8.6342
79.405303 91.587 -8.6892
79.980706 91.564 -8.7396
80.560280 91.541 -8.7855
81.144053 91.519 -8.8281
81.732056 91.497 -8.8696
82.324320 91.476 -8.9127
82.920876 91.456 -8.9583
83.521755 91.436 -9.0057
84.126988 91.416 -9.0522
84.736607 91.396 -9.0947
85.350643 91.378 -9.1315
85.969129 91.360 -9.1630
86.592097 91.343 -9.1918
87.219579 91.327 -9.2225
87.851608 91.311 -9.2593
88.488217 91.295 -9.3027
89.129439 91.276 -9.3495
89.775308 91.255 -9.3951
90.425856 91.233 -9.4368
91.081119 91.209 -9.4721
91.741131 91.184 -9.4987
92.405925 91.160 -9.5172
93.075536 91.138 -9.5335
93.750000 91.118 -9.5551
94.429351 91.100 -9.5851
95.113625 91.083 -9.6216
95.802858 91.067 -9.6622
96.497085 91.052 -9.7062
97.196342 91.037 -9.7531
97.900667 91.022 -9.7997
98.610096 91.006 -9.8409
99.324665 90.989 -9.8740
100.044413 90.972 -9.9012
100.769376 90.953 -9.9258
101.499592 90.934 -9.9468
102.235100 90.913 -9.9601
102.975938 90.892 -9.9637
