* Measurement data measured by REW V5.31.3
* Source: Headset (2- CX31993 HIFI AUDIO), MICROPHONE (Master Volume), R, volume: 0.400
* Format: 256k Log Swept Sine, 1 sweep at -12.0 dBFS with no timing reference
* Dated: 09 24, 24 3:18:23 PM
* REW Settings:
*  C-weighting compensation: Off
*  Target level: 75.0 dB
* Note: ; 
* Measurement: DUSK R
* Smoothing: 1/12 octave
* Frequency Step: 96 ppo
* Start Frequency: 0.36621094 Hz
*
* Freq(Hz) SPL(dB) Phase(degrees)
0.366211 58.350 -54.1144
0.368865 58.362 -54.2219
0.371538 58.379 -54.3821
0.374230 58.400 -54.5818
0.376942 58.424 -54.8096
0.379673 58.450 -55.0571
0.382424 58.476 -55.3189
0.385196 58.504 -55.5915
0.387987 58.532 -55.8730
0.390798 58.560 -56.1624
0.393630 58.589 -56.4590
0.396483 58.618 -56.7626
0.399356 58.647 -57.0730
0.402250 58.676 -57.3902
0.405165 58.705 -57.7142
0.408101 58.735 -58.0450
0.411058 58.765 -58.3826
0.414037 58.795 -58.7271
0.417037 58.825 -59.0784
0.420059 58.856 -59.4366
0.423103 58.887 -59.8016
0.426169 58.918 -60.1736
0.429257 58.949 -60.5524
0.432368 58.980 -60.9382
0.435501 59.012 -61.3308
0.438656 59.044 -61.7304
0.441835 59.076 -62.1368
0.445037 59.108 -62.5501
0.448262 59.141 -62.9703
0.451510 59.174 -63.3974
0.454782 59.207 -63.8312
0.458077 59.240 -64.2719
0.461397 59.274 -64.7193
0.464740 59.308 -65.1734
0.468108 59.342 -65.6342
0.471500 59.376 -66.1017
0.474917 59.411 -66.5758
0.478358 59.445 -67.0564
0.481825 59.480 -67.5434
0.485316 59.516 -68.0370
0.488833 59.551 -68.5368
0.492375 59.587 -69.0430
0.495943 59.623 -69.5554
0.499537 59.660 -70.0740
0.503157 59.696 -70.5986
0.506803 59.733 -71.1292
0.510475 59.770 -71.6657
0.514175 59.808 -72.2080
0.517900 59.845 -72.7561
0.521653 59.883 -73.3098
0.525434 59.921 -73.8690
0.529241 59.960 -74.4337
0.533076 59.999 -75.0037
0.536939 60.038 -75.5790
0.540830 60.077 -76.1594
0.544749 60.117 -76.7449
0.548696 60.157 -77.3352
0.552673 60.197 -77.9304
0.556677 60.237 -78.5304
0.560711 60.278 -79.1349
0.564774 60.319 -79.7439
0.568867 60.361 -80.3574
0.572989 60.402 -80.9752
0.577141 60.444 -81.5971
0.581324 60.487 -82.2232
0.585536 60.529 -82.8532
0.589779 60.572 -83.4871
0.594053 60.615 -84.1249
0.598358 60.659 -84.7663
0.602694 60.703 -85.4114
0.607061 60.747 -86.0600
0.611460 60.791 -86.7121
0.615891 60.836 -87.3675
0.620354 60.881 -88.0262
0.624849 60.927 -88.6882
0.629377 60.973 -89.3533
0.633938 61.019 -90.0215
0.638532 61.065 -90.6927
0.643159 61.112 -91.3669
0.647819 61.159 -92.0441
0.652514 61.207 -92.7241
0.657242 61.254 -93.4070
0.662005 61.303 -94.0928
0.666802 61.351 -94.7813
0.671634 61.400 -95.4727
0.676501 61.449 -96.1668
0.681403 61.499 -96.8637
0.686341 61.549 -97.5634
0.691314 61.599 -98.2658
0.696324 61.650 -98.9711
0.701370 61.702 -99.6791
0.706452 61.754 -100.3899
0.711571 61.807 -101.1035
0.716728 61.861 -101.8197
0.721921 61.918 -102.5384
0.727153 61.977 -103.2592
0.732422 62.039 -103.9819
0.737729 62.105 -104.7058
0.743075 62.175 -105.4302
0.748460 62.248 -106.1546
0.753883 62.323 -106.8783
0.759346 62.401 -107.6008
0.764849 62.481 -108.3216
0.770391 62.563 -109.0405
0.775974 62.646 -109.7569
0.781597 62.732 -110.4707
0.787261 62.819 -111.1815
0.792966 62.908 -111.8892
0.798712 62.998 -112.5934
0.804500 63.090 -113.2940
0.810329 63.184 -113.9908
0.816201 63.279 -114.6836
0.822116 63.376 -115.3724
0.828073 63.474 -116.0569
0.834074 63.574 -116.7372
0.840118 63.676 -117.4131
0.846206 63.779 -118.0846
0.852338 63.883 -118.7516
0.858514 63.989 -119.4142
0.864735 64.096 -120.0724
0.871001 64.205 -120.7262
0.877313 64.315 -121.3756
0.883670 64.426 -122.0207
0.890074 64.539 -122.6616
0.896524 64.653 -123.2983
0.903020 64.768 -123.9310
0.909564 64.884 -124.5598
0.916155 65.002 -125.1848
0.922794 65.120 -125.8061
0.929481 65.240 -126.4240
0.936216 65.360 -127.0386
0.943000 65.481 -127.6500
0.949834 65.604 -128.2585
0.956717 65.727 -128.8642
0.963649 65.851 -129.4673
0.970632 65.975 -130.0682
0.977666 66.100 -130.6669
0.984750 66.226 -131.2637
0.991886 66.352 -131.8589
0.999074 66.479 -132.4527
1.006314 66.605 -133.0453
1.013606 66.732 -133.6370
1.020951 66.860 -134.2281
1.028349 66.987 -134.8188
1.035801 67.114 -135.4094
1.043307 67.241 -136.0001
1.050867 67.368 -136.5911
1.058482 67.494 -137.1828
1.066152 67.621 -137.7753
1.073878 67.746 -138.3686
1.081660 67.872 -138.9628
1.089498 67.997 -139.5578
1.097393 68.121 -140.1530
1.105345 68.246 -140.7480
1.113355 68.371 -141.3423
1.121423 68.496 -141.9351
1.129549 68.621 -142.5261
1.137734 68.747 -143.1148
1.145979 68.874 -143.7011
1.154283 69.000 -144.2849
1.162647 69.128 -144.8659
1.171072 69.256 -145.4442
1.179558 69.384 -146.0198
1.188106 69.513 -146.5926
1.196715 69.642 -147.1626
1.205387 69.772 -147.7298
1.214122 69.902 -148.2944
1.222920 70.033 -148.8563
1.231782 70.164 -149.4156
1.240708 70.296 -149.9724
1.249699 70.428 -150.5267
1.258754 70.560 -151.0787
1.267876 70.693 -151.6283
1.277063 70.826 -152.1759
1.286318 70.960 -152.7213
1.295639 71.093 -153.2648
1.305027 71.228 -153.8066
1.314484 71.362 -154.3466
1.324009 71.496 -154.8852
1.333604 71.631 -155.4223
1.343268 71.766 -155.9583
1.353002 71.901 -156.4931
1.362806 72.037 -157.0271
1.372681 72.172 -157.5603
1.382628 72.308 -158.0930
1.392647 72.443 -158.6253
1.402739 72.579 -159.1574
1.412904 72.714 -159.6893
1.423142 72.850 -160.2213
1.433455 72.986 -160.7533
1.443843 73.121 -161.2852
1.454305 73.257 -161.8168
1.464844 73.392 -162.3479
1.475459 73.527 -162.8779
1.486150 73.662 -163.4063
1.496920 73.797 -163.9327
1.507767 73.932 -164.4570
1.518693 74.067 -164.9791
1.529698 74.201 -165.4989
1.540783 74.336 -166.0165
1.551948 74.470 -166.5322
1.563194 74.604 -167.0461
1.574521 74.738 -167.5584
1.585931 74.872 -168.0693
1.597423 75.005 -168.5792
1.608999 75.139 -169.0882
1.620658 75.272 -169.5967
1.632402 75.406 -170.1049
1.644232 75.539 -170.6131
1.656146 75.672 -171.1216
1.668147 75.805 -171.6307
1.680235 75.938 -172.1408
1.692411 76.071 -172.6522
1.704675 76.204 -173.1651
1.717028 76.336 -173.6800
1.729470 76.469 -174.1971
1.742003 76.602 -174.7168
1.754626 76.734 -175.2394
1.767341 76.867 -175.7653
1.780147 76.999 -176.2946
1.793047 77.132 -176.8278
1.806040 77.264 -177.3648
1.819128 77.397 -177.9057
1.832310 77.529 -178.4504
1.845587 77.661 -178.9985
1.858961 77.793 -179.5496
1.872432 77.924 179.8967
1.886001 78.055 179.3408
1.899667 78.185 178.7830
1.913433 78.316 178.2238
1.927299 78.445 177.6632
1.941265 78.575 177.1016
1.955332 78.704 176.5391
1.969501 78.832 175.9758
1.983773 78.960 175.4118
1.998148 79.088 174.8473
2.012627 79.216 174.2823
2.027212 79.343 173.7167
2.041902 79.470 173.1507
2.056698 79.596 172.5840
2.071602 79.723 172.0168
2.086614 79.849 171.4489
2.101734 79.974 170.8801
2.116964 80.100 170.3104
2.132304 80.225 169.7394
2.147756 80.350 169.1671
2.163320 80.475 168.5931
2.178996 80.600 168.0170
2.194786 80.724 167.4387
2.210690 80.848 166.8578
2.226710 80.972 166.2741
2.242845 81.095 165.6877
2.259098 81.217 165.0986
2.275468 81.339 164.5071
2.291957 81.460 163.9135
2.308566 81.580 163.3180
2.325295 81.700 162.7210
2.342145 81.820 162.1227
2.359117 81.939 161.5235
2.376212 82.057 160.9236
2.393431 82.175 160.3231
2.410775 82.292 159.7223
2.428244 82.409 159.1212
2.445840 82.526 158.5201
2.463564 82.642 157.9188
2.481416 82.757 157.3175
2.499397 82.873 156.7160
2.517509 82.988 156.1140
2.535752 83.102 155.5113
2.554127 83.216 154.9073
2.572635 83.329 154.3015
2.591277 83.442 153.6935
2.610055 83.555 153.0827
2.628968 83.666 152.4692
2.648019 83.777 151.8530
2.667208 83.887 151.2344
2.686535 83.996 150.6138
2.706003 84.105 149.9916
2.725612 84.213 149.3683
2.745363 84.320 148.7442
2.765257 84.426 148.1197
2.785295 84.532 147.4952
2.805478 84.638 146.8711
2.825808 84.743 146.2476
2.846285 84.847 145.6248
2.866910 84.951 145.0027
2.887685 85.054 144.3812
2.908611 85.157 143.7599
2.929688 85.259 143.1382
2.950917 85.361 142.5154
2.972301 85.462 141.8909
2.993839 85.562 141.2643
3.015534 85.661 140.6356
3.037386 85.759 140.0049
3.059396 85.857 139.3727
3.081565 85.954 138.7394
3.103896 86.050 138.1055
3.126388 86.145 137.4716
3.149043 86.240 136.8382
3.171862 86.334 136.2057
3.194847 86.427 135.5747
3.217998 86.520 134.9454
3.241317 86.613 134.3179
3.264805 86.705 133.6920
3.288463 86.796 133.0674
3.312293 86.886 132.4434
3.336295 86.976 131.8194
3.360471 87.065 131.1948
3.384822 87.154 130.5695
3.409350 87.241 129.9434
3.434056 87.328 129.3169
3.458940 87.414 128.6902
3.484005 87.499 128.0640
3.509252 87.584 127.4386
3.534681 87.668 126.8145
3.560295 87.751 126.1921
3.586094 87.834 125.5718
3.612081 87.917 124.9536
3.638255 87.999 124.3374
3.664620 88.080 123.7229
3.691175 88.161 123.1095
3.717923 88.241 122.4968
3.744864 88.320 121.8844
3.772001 88.399 121.2722
3.799335 88.477 120.6603
3.826866 88.554 120.0491
3.854597 88.631 119.4388
3.882529 88.707 118.8297
3.910664 88.783 118.2224
3.939002 88.858 117.6171
3.967546 88.932 117.0140
3.996296 89.007 116.4131
4.025255 89.080 115.8143
4.054423 89.154 115.2173
4.083804 89.227 114.6216
4.113396 89.299 114.0270
4.143204 89.370 113.4333
4.173227 89.442 112.8406
4.203468 89.512 112.2489
4.233928 89.582 111.6584
4.264609 89.652 111.0695
4.295512 89.721 110.4821
4.326639 89.790 109.8965
4.357992 89.858 109.3126
4.389572 89.926 108.7305
4.421380 89.994 108.1498
4.453419 90.061 107.5703
4.485691 90.128 106.9917
4.518196 90.194 106.4141
4.550936 90.260 105.8374
4.583914 90.326 105.2617
4.617131 90.391 104.6871
4.650589 90.455 104.1138
4.684289 90.519 103.5417
4.718233 90.583 102.9709
4.752424 90.647 102.4014
4.786862 90.710 101.8330
4.821549 90.773 101.2654
4.856488 90.835 100.6985
4.891680 90.897 100.1324
4.927127 90.958 99.5669
4.962831 91.019 99.0023
4.998794 91.080 98.4384
5.035017 91.140 97.8756
5.071503 91.200 97.3138
5.108253 91.259 96.7528
5.145270 91.318 96.1927
5.182555 91.377 95.6332
5.220110 91.435 95.0743
5.257937 91.492 94.5159
5.296038 91.550 93.9580
5.334415 91.606 93.4008
5.373071 91.663 92.8444
5.412006 91.719 92.2888
5.451224 91.774 91.7342
5.490725 91.829 91.1805
5.530514 91.884 90.6275
5.570590 91.938 90.0752
5.610957 91.991 89.5234
5.651616 92.044 88.9723
5.692570 92.097 88.4218
5.733821 92.149 87.8723
5.775370 92.201 87.3238
5.817221 92.252 86.7763
5.859375 92.303 86.2299
5.901834 92.353 85.6844
5.944602 92.403 85.1398
5.987679 92.452 84.5960
6.031068 92.500 84.0530
6.074771 92.549 83.5111
6.118792 92.596 82.9703
6.163131 92.644 82.4307
6.207792 92.690 81.8923
6.252776 92.737 81.3551
6.298086 92.782 80.8191
6.343725 92.828 80.2841
6.389694 92.872 79.7502
6.435996 92.917 79.2176
6.482634 92.960 78.6862
6.529610 93.004 78.1563
6.576926 93.046 77.6279
6.624585 93.089 77.1008
6.672590 93.130 76.5751
6.720942 93.172 76.0508
6.769645 93.212 75.5280
6.818700 93.252 75.0067
6.868111 93.292 74.4871
6.917881 93.331 73.9692
6.968010 93.370 73.4532
7.018504 93.408 72.9389
7.069362 93.446 72.4264
7.120590 93.483 71.9158
7.172189 93.519 71.4072
7.224161 93.555 70.9006
7.276511 93.591 70.3964
7.329239 93.626 69.8944
7.382350 93.661 69.3948
7.435845 93.695 68.8976
7.489729 93.729 68.4027
7.544002 93.762 67.9104
7.598669 93.795 67.4207
7.653732 93.827 66.9336
7.709194 93.859 66.4493
7.765058 93.891 65.9678
7.821327 93.922 65.4890
7.878004 93.953 65.0130
7.935091 93.983 64.5396
7.992592 94.014 64.0688
8.050510 94.044 63.6008
8.108847 94.074 63.1353
8.167607 94.103 62.6724
8.226793 94.133 62.2119
8.286408 94.162 61.7535
8.346454 94.191 61.2971
8.406936 94.220 60.8427
8.467856 94.249 60.3900
8.529218 94.278 59.9388
8.591024 94.306 59.4890
8.653278 94.335 59.0403
8.715983 94.363 58.5925
8.779143 94.391 58.1454
8.842760 94.419 57.6987
8.906839 94.447 57.2524
8.971381 94.474 56.8064
9.036392 94.502 56.3604
9.101873 94.529 55.9144
9.167829 94.555 55.4683
9.234263 94.582 55.0220
9.301178 94.607 54.5755
9.368578 94.633 54.1290
9.436467 94.658 53.6826
9.504847 94.682 53.2363
9.573723 94.706 52.7903
9.643099 94.729 52.3449
9.712976 94.752 51.9002
9.783361 94.774 51.4566
9.854255 94.796 51.0143
9.925663 94.816 50.5738
9.997588 94.836 50.1351
10.070035 94.856 49.6986
10.143007 94.875 49.2646
10.216507 94.893 48.8334
10.290540 94.911 48.4052
10.365109 94.929 47.9801
10.440219 94.946 47.5582
10.515873 94.963 47.1396
10.592076 94.979 46.7243
10.668830 94.995 46.3121
10.746141 95.011 45.9030
10.824012 95.027 45.4969
10.902447 95.043 45.0932
10.981451 95.059 44.6919
11.061027 95.074 44.2925
11.141180 95.090 43.8948
11.221913 95.106 43.4983
11.303232 95.121 43.1027
11.385140 95.137 42.7076
11.467641 95.152 42.3127
11.550741 95.168 41.9179
11.634442 95.183 41.5230
11.718750 95.198 41.1278
11.803669 95.212 40.7323
11.889203 95.226 40.3366
11.975357 95.240 39.9409
12.062136 95.253 39.5454
12.149543 95.266 39.1504
12.237583 95.279 38.7562
12.326262 95.291 38.3632
12.415583 95.302 37.9717
12.505552 95.313 37.5821
12.596172 95.323 37.1948
12.687449 95.333 36.8099
12.779387 95.343 36.4277
12.871992 95.352 36.0483
12.965268 95.362 35.6715
13.059220 95.371 35.2973
13.153852 95.380 34.9254
13.249170 95.389 34.5555
13.345179 95.398 34.1872
13.441884 95.408 33.8199
13.539289 95.417 33.4531
13.637401 95.426 33.0864
13.736223 95.436 32.7194
13.835761 95.445 32.3517
13.936021 95.454 31.9831
14.037007 95.462 31.6134
14.138725 95.471 31.2429
14.241180 95.479 30.8718
14.344377 95.486 30.5006
14.448323 95.492 30.1299
14.553021 95.498 29.7603
14.658478 95.503 29.3929
14.764700 95.508 29.0285
14.871691 95.512 28.6680
14.979457 95.515 28.3121
15.088005 95.518 27.9615
15.197339 95.520 27.6168
15.307465 95.523 27.2782
15.418389 95.525 26.9455
15.530117 95.528 26.6184
15.642655 95.532 26.2963
15.756008 95.536 25.9783
15.870182 95.541 25.6630
15.985184 95.546 25.3492
16.101019 95.553 25.0355
16.217694 95.560 24.7203
16.335214 95.568 24.4021
16.453586 95.577 24.0798
16.572815 95.585 23.7522
16.692909 95.594 23.4187
16.813872 95.603 23.0790
16.935713 95.612 22.7328
17.058436 95.619 22.3808
17.182048 95.626 22.0236
17.306556 95.632 21.6622
17.431967 95.636 21.2980
17.558286 95.639 20.9326
17.685521 95.640 20.5676
17.813677 95.640 20.2049
17.942762 95.638 19.8461
18.072783 95.635 19.4928
18.203746 95.631 19.1466
18.335658 95.626 18.8087
18.468526 95.620 18.4802
18.602356 95.614 18.1614
18.737156 95.608 17.8528
18.872934 95.601 17.5541
19.009695 95.596 17.2643
19.147447 95.591 16.9824
19.286197 95.587 16.7066
19.425953 95.585 16.4347
19.566721 95.583 16.1643
19.708510 95.584 15.8926
19.851326 95.585 15.6170
19.995177 95.588 15.3348
20.140070 95.591 15.0440
20.286013 95.594 14.7430
20.433014 95.597 14.4310
20.581080 95.600 14.1084
20.730219 95.601 13.7764
20.880439 95.600 13.4370
21.031747 95.597 13.0935
21.184152 95.592 12.7495
21.337661 95.584 12.4090
21.492282 95.574 12.0757
21.648024 95.562 11.7532
21.804895 95.549 11.4439
21.962902 95.536 11.1492
22.122054 95.522 10.8693
22.282360 95.510 10.6027
22.443827 95.498 10.3470
22.606464 95.488 10.0989
22.770280 95.480 9.8546
22.935283 95.473 9.6105
23.101481 95.467 9.3632
23.268884 95.463 9.1105
23.437500 95.459 8.8513
23.607338 95.455 8.5857
23.778406 95.450 8.3146
23.950714 95.445 8.0396
24.124271 95.439 7.7626
24.299086 95.432 7.4851
24.475167 95.425 7.2083
24.652524 95.417 6.9325
24.831166 95.410 6.6577
25.011103 95.401 6.3831
25.192344 95.393 6.1081
25.374898 95.384 5.8324
25.558775 95.374 5.5563
25.743984 95.363 5.2808
25.930536 95.351 5.0078
26.118439 95.338 4.7393
26.307704 95.325 4.4772
26.498341 95.310 4.2228
26.690359 95.296 3.9762
26.883768 95.282 3.7363
27.078579 95.268 3.5009
27.274801 95.256 3.2670
27.472446 95.243 3.0322
27.671522 95.231 2.7948
27.872042 95.218 2.5549
28.074014 95.204 2.3145
28.277450 95.189 2.0773
28.482360 95.172 1.8481
28.688755 95.154 1.6314
28.896645 95.137 1.4303
29.106042 95.120 1.2450
29.316957 95.106 1.0729
29.529400 95.095 0.9083
29.743382 95.087 0.7432
29.958915 95.082 0.5693
30.176009 95.080 0.3796
30.394677 95.079 0.1698
30.614929 95.078 -0.0610
30.836778 95.075 -0.3101
31.060234 95.071 -0.5722
31.285309 95.065 -0.8409
31.512015 95.056 -1.1102
31.740364 95.046 -1.3758
31.970368 95.034 -1.6356
32.202039 95.023 -1.8898
32.435388 95.011 -2.1400
32.670428 95.000 -2.3885
32.907171 94.988 -2.6369
33.145630 94.976 -2.8859
33.385817 94.964 -3.1351
33.627745 94.951 -3.3840
33.871425 94.937 -3.6318
34.116871 94.923 -3.8784
34.364096 94.909 -4.1239
34.613113 94.893 -4.3689
34.863934 94.877 -4.6129
35.116572 94.860 -4.8549
35.371041 94.842 -5.0923
35.627354 94.822 -5.3226
35.885525 94.802 -5.5436
36.145566 94.781 -5.7546
36.407492 94.761 -5.9570
36.671316 94.742 -6.1537
36.937051 94.723 -6.3485
37.204712 94.705 -6.5449
37.474313 94.688 -6.7449
37.745867 94.670 -6.9483
38.019389 94.651 -7.1537
38.294893 94.632 -7.3593
38.572394 94.612 -7.5633
38.851905 94.593 -7.7657
39.133442 94.573 -7.9676
39.417019 94.554 -8.1704
39.702651 94.534 -8.3752
39.990353 94.514 -8.5821
40.280140 94.494 -8.7899
40.572026 94.473 -8.9966
40.866028 94.452 -9.2001
41.162160 94.431 -9.3990
41.460438 94.409 -9.5931
41.760877 94.389 -9.7831
42.063494 94.369 -9.9706
42.368303 94.350 -10.1581
42.675322 94.332 -10.3480
42.984565 94.314 -10.5424
43.296048 94.296 -10.7424
43.609789 94.277 -10.9471
43.925804 94.257 -11.1534
44.244108 94.235 -11.3569
44.564719 94.211 -11.5522
44.887654 94.187 -11.7357
45.212928 94.162 -11.9058
45.540560 94.137 -12.0642
45.870565 94.114 -12.2144
46.202962 94.091 -12.3605
46.537768 94.069 -12.5054
46.875000 94.047 -12.6506
47.214676 94.025 -12.7965
47.556813 94.003 -12.9434
47.901429 93.981 -13.0920
48.248542 93.959 -13.2441
48.598171 93.937 -13.4011
48.950334 93.914 -13.5634
49.305048 93.890 -13.7296
49.662333 93.865 -13.8972
50.022206 93.839 -14.0630
50.384688 93.813 -14.2253
50.749796 93.786 -14.3841
51.117550 93.759 -14.5411
51.487969 93.733 -14.6989
51.861072 93.707 -14.8593
52.236879 93.681 -15.0221
52.615409 93.654 -15.1849
52.996681 93.626 -15.3447
53.380717 93.599 -15.4987
53.767536 93.571 -15.6458
54.157158 93.544 -15.7863
54.549603 93.517 -15.9218
54.944892 93.492 -16.0540
55.343045 93.467 -16.1852
55.744084 93.443 -16.3187
56.148028 93.419 -16.4578
56.554900 93.395 -16.6042
56.964720 93.369 -16.7555
57.377510 93.340 -16.9052
57.793291 93.309 -17.0453
58.212085 93.278 -17.1700
58.633914 93.246 -17.2794
59.058799 93.215 -17.3783
59.486764 93.186 -17.4735
59.917829 93.157 -17.5712
60.352019 93.130 -17.6753
60.789354 93.103 -17.7875
61.229859 93.076 -17.9073
61.673556 93.049 -18.0322
62.120468 93.020 -18.1570
62.570618 92.992 -18.2776
63.024031 92.964 -18.3930
63.480729 92.937 -18.5068
63.940736 92.912 -18.6247
64.404077 92.887 -18.7503
64.870776 92.861 -18.8834
65.340856 92.835 -19.0212
65.814343 92.807 -19.1599
66.291261 92.777 -19.2961
66.771635 92.745 -19.4268
67.255489 92.712 -19.5484
67.742850 92.677 -19.6585
68.233743 92.642 -19.7565
68.728193 92.606 -19.8439
69.226226 92.571 -19.9236
69.727867 92.536 -19.9991
70.233144 92.503 -20.0737
70.742083 92.470 -20.1493
71.254709 92.437 -20.2255
71.771050 92.405 -20.3000
72.291132 92.373 -20.3710
72.814984 92.342 -20.4380
73.342631 92.313 -20.5026
73.874102 92.284 -20.5660
74.409424 92.255 -20.6285
74.948626 92.226 -20.6887
75.491734 92.197 -20.7450
76.038779 92.166 -20.7958
76.589787 92.135 -20.8407
77.144788 92.103 -20.8818
77.703811 92.071 -20.9233
78.266885 92.039 -20.9704
78.834039 92.006 -21.0259
79.405303 91.972 -21.0899
79.980706 91.937 -21.1598
80.560280 91.901 -21.2323
81.144053 91.865 -21.3040
81.732056 91.831 -21.3729
82.324320 91.797 -21.4377
82.920876 91.765 -21.4980
83.521755 91.735 -21.5536
84.126988 91.706 -21.6036
84.736607 91.677 -21.6473
85.350643 91.649 -21.6849
85.969129 91.621 -21.7167
86.592097 91.591 -21.7434
87.219579 91.560 -21.7654
87.851608 91.528 -21.7827
88.488217 91.494 -21.7957
89.129439 91.460 -21.8054
89.775308 91.426 -21.8134
90.425856 91.393 -21.8210
91.081119 91.360 -21.8300
91.741131 91.330 -21.8410
92.405925 91.300 -21.8538
93.075536 91.272 -21.8663
93.750000 91.244 -21.8759
94.429351 91.216 -21.8812
95.113625 91.188 -21.8831
95.802858 91.157 -21.8822
96.497085 91.124 -21.8784
97.196342 91.088 -21.8709
97.900667 91.049 -21.8612
98.610096 91.008 -21.8538
