* Measurement data measured by REW V5.31.3
* Source: Headset (2- CX31993 HIFI AUDIO), MICROPHONE (Master Volume), R, volume: 0.400
* Format: 256k Log Swept Sine, 1 sweep at -12.0 dBFS with no timing reference
* Dated: 10 9, 24 12:27:49 PM
* REW Settings:
*  C-weighting compensation: Off
*  Target level: 75.0 dB
* Note: ; 
* Measurement: Kadenz ECHO B SS+ L
* Smoothing: 1/12 octave
* Frequency Step: 96 ppo
* Start Frequency: 0.36621094 Hz
*
* Freq(Hz) SPL(dB) Phase(degrees)
0.366211 62.037 -43.2372
0.368865 62.030 -43.2790
0.371538 62.018 -43.3418
0.374230 62.005 -43.4207
0.376942 61.989 -43.5117
0.379673 61.972 -43.6118
0.382424 61.954 -43.7190
0.385196 61.936 -43.8322
0.387987 61.918 -43.9507
0.390798 61.899 -44.0742
0.393630 61.880 -44.2025
0.396483 61.861 -44.3356
0.399356 61.842 -44.4736
0.402250 61.823 -44.6163
0.405165 61.803 -44.7641
0.408101 61.784 -44.9168
0.411058 61.764 -45.0746
0.414037 61.744 -45.2377
0.417037 61.724 -45.4060
0.420059 61.704 -45.5797
0.423103 61.684 -45.7589
0.426169 61.663 -45.9436
0.429257 61.643 -46.1341
0.432368 61.622 -46.3303
0.435501 61.601 -46.5324
0.438656 61.580 -46.7405
0.441835 61.559 -46.9546
0.445037 61.537 -47.1750
0.448262 61.516 -47.4017
0.451510 61.494 -47.6348
0.454782 61.472 -47.8744
0.458077 61.450 -48.1206
0.461397 61.428 -48.3737
0.464740 61.406 -48.6335
0.468108 61.384 -48.9004
0.471500 61.361 -49.1744
0.474917 61.338 -49.4556
0.478358 61.315 -49.7441
0.481825 61.292 -50.0401
0.485316 61.269 -50.3436
0.488833 61.245 -50.6549
0.492375 61.222 -50.9739
0.495943 61.198 -51.3008
0.499537 61.174 -51.6358
0.503157 61.150 -51.9790
0.506803 61.125 -52.3304
0.510475 61.101 -52.6901
0.514175 61.076 -53.0584
0.517900 61.051 -53.4352
0.521653 61.026 -53.8207
0.525434 61.001 -54.2150
0.529241 60.976 -54.6182
0.533076 60.950 -55.0304
0.536939 60.924 -55.4516
0.540830 60.898 -55.8819
0.544749 60.872 -56.3215
0.548696 60.846 -56.7703
0.552673 60.819 -57.2285
0.556677 60.793 -57.6960
0.560711 60.766 -58.1730
0.564774 60.739 -58.6595
0.568867 60.711 -59.1554
0.572989 60.684 -59.6608
0.577141 60.656 -60.1757
0.581324 60.628 -60.7001
0.585536 60.600 -61.2340
0.589779 60.572 -61.7772
0.594053 60.543 -62.3298
0.598358 60.515 -62.8916
0.602694 60.486 -63.4627
0.607061 60.457 -64.0427
0.611460 60.427 -64.6318
0.615891 60.398 -65.2296
0.620354 60.368 -65.8360
0.624849 60.338 -66.4508
0.629377 60.308 -67.0738
0.633938 60.277 -67.7047
0.638532 60.247 -68.3434
0.643159 60.216 -68.9894
0.647819 60.185 -69.6426
0.652514 60.154 -70.3025
0.657242 60.122 -70.9687
0.662005 60.090 -71.6409
0.666802 60.058 -72.3187
0.671634 60.026 -73.0016
0.676501 59.994 -73.6890
0.681403 59.961 -74.3806
0.686341 59.928 -75.0757
0.691314 59.895 -75.7737
0.696324 59.861 -76.4740
0.701370 59.827 -77.1758
0.706452 59.793 -77.8784
0.711571 59.758 -78.5808
0.716728 59.723 -79.2824
0.721921 59.686 -79.9827
0.727153 59.648 -80.6821
0.732422 59.607 -81.3822
0.737729 59.564 -82.0869
0.743075 59.519 -82.8017
0.748460 59.470 -83.5325
0.753883 59.418 -84.2843
0.759346 59.363 -85.0606
0.764849 59.305 -85.8643
0.770391 59.244 -86.6972
0.775974 59.181 -87.5608
0.781597 59.115 -88.4562
0.787261 59.047 -89.3845
0.792966 58.976 -90.3466
0.798712 58.902 -91.3434
0.804500 58.827 -92.3757
0.810329 58.749 -93.4444
0.816201 58.670 -94.5505
0.822116 58.588 -95.6946
0.828073 58.505 -96.8777
0.834074 58.420 -98.1005
0.840118 58.334 -99.3638
0.846206 58.246 -100.6683
0.852338 58.157 -102.0146
0.858514 58.068 -103.4035
0.864735 57.977 -104.8353
0.871001 57.886 -106.3107
0.877313 57.795 -107.8300
0.883670 57.703 -109.3934
0.890074 57.611 -111.0013
0.896524 57.520 -112.6537
0.903020 57.429 -114.3506
0.909564 57.339 -116.0919
0.916155 57.249 -117.8772
0.922794 57.161 -119.7063
0.929481 57.075 -121.5786
0.936216 56.990 -123.4934
0.943000 56.907 -125.4501
0.949834 56.827 -127.4478
0.956717 56.749 -129.4855
0.963649 56.675 -131.5621
0.970632 56.603 -133.6766
0.977666 56.536 -135.8278
0.984750 56.473 -138.0144
0.991886 56.414 -140.2352
0.999074 56.360 -142.4891
1.006314 56.312 -144.7748
1.013606 56.270 -147.0913
1.020951 56.233 -149.4376
1.028349 56.204 -151.8127
1.035801 56.182 -154.2160
1.043307 56.167 -156.6469
1.050867 56.161 -159.1052
1.058482 56.164 -161.5910
1.066152 56.176 -164.1047
1.073878 56.198 -166.6472
1.081660 56.231 -169.2200
1.089498 56.274 -171.8246
1.097393 56.330 -174.4628
1.105345 56.397 -177.1352
1.113355 56.476 -179.8405
1.121423 56.567 177.4252
1.129549 56.671 174.6685
1.137734 56.786 171.8981
1.145979 56.914 169.1239
1.154283 57.053 166.3565
1.162647 57.203 163.6065
1.171072 57.365 160.8842
1.179558 57.537 158.1989
1.188106 57.720 155.5590
1.196715 57.913 152.9720
1.205387 58.116 150.4440
1.214122 58.327 147.9798
1.222920 58.548 145.5832
1.231782 58.777 143.2566
1.240708 59.014 141.0015
1.249699 59.259 138.8185
1.258754 59.510 136.7072
1.267876 59.768 134.6667
1.277063 60.031 132.6952
1.286318 60.299 130.7909
1.295639 60.572 128.9511
1.305027 60.849 127.1733
1.314484 61.129 125.4546
1.324009 61.411 123.7917
1.333604 61.695 122.1819
1.343268 61.980 120.6217
1.353002 62.265 119.1081
1.362806 62.549 117.6380
1.372681 62.832 116.2083
1.382628 63.112 114.8161
1.392647 63.389 113.4584
1.402739 63.662 112.1326
1.412904 63.930 110.8358
1.423142 64.193 109.5658
1.433455 64.449 108.3203
1.443843 64.700 107.0975
1.454305 64.945 105.8959
1.464844 65.185 104.7148
1.475459 65.421 103.5538
1.486150 65.654 102.4130
1.496920 65.886 101.2923
1.507767 66.117 100.1919
1.518693 66.347 99.1113
1.529698 66.577 98.0501
1.540783 66.807 97.0077
1.551948 67.036 95.9833
1.563194 67.266 94.9760
1.574521 67.495 93.9847
1.585931 67.725 93.0087
1.597423 67.954 92.0468
1.608999 68.182 91.0980
1.620658 68.411 90.1612
1.632402 68.639 89.2354
1.644232 68.867 88.3195
1.656146 69.094 87.4124
1.668147 69.320 86.5131
1.680235 69.546 85.6206
1.692411 69.771 84.7338
1.704675 69.996 83.8517
1.717028 70.220 82.9733
1.729470 70.442 82.0975
1.742003 70.664 81.2235
1.754626 70.885 80.3503
1.767341 71.104 79.4771
1.780147 71.323 78.6030
1.793047 71.540 77.7277
1.806040 71.755 76.8506
1.819128 71.969 75.9719
1.832310 72.181 75.0920
1.845587 72.392 74.2117
1.858961 72.600 73.3322
1.872432 72.806 72.4544
1.886001 73.010 71.5794
1.899667 73.212 70.7078
1.913433 73.413 69.8403
1.927299 73.611 68.9773
1.941265 73.807 68.1190
1.955332 74.001 67.2655
1.969501 74.194 66.4168
1.983773 74.385 65.5730
1.998148 74.575 64.7338
2.012627 74.764 63.8990
2.027212 74.951 63.0684
2.041902 75.137 62.2415
2.056698 75.322 61.4180
2.071602 75.507 60.5974
2.086614 75.690 59.7791
2.101734 75.874 58.9627
2.116964 76.056 58.1475
2.132304 76.239 57.3330
2.147756 76.421 56.5186
2.163320 76.604 55.7036
2.178996 76.785 54.8878
2.194786 76.967 54.0708
2.210690 77.148 53.2528
2.226710 77.327 52.4338
2.242845 77.506 51.6143
2.259098 77.684 50.7948
2.275468 77.860 49.9757
2.291957 78.035 49.1576
2.308566 78.208 48.3406
2.325295 78.381 47.5253
2.342145 78.552 46.7116
2.359117 78.722 45.8999
2.376212 78.891 45.0901
2.393431 79.059 44.2822
2.410775 79.226 43.4761
2.428244 79.392 42.6717
2.445840 79.558 41.8687
2.463564 79.723 41.0668
2.481416 79.888 40.2657
2.499397 80.052 39.4649
2.517509 80.216 38.6640
2.535752 80.380 37.8625
2.554127 80.542 37.0598
2.572635 80.705 36.2555
2.591277 80.866 35.4495
2.610055 81.026 34.6416
2.628968 81.186 33.8321
2.648019 81.344 33.0213
2.667208 81.502 32.2097
2.686535 81.658 31.3977
2.706003 81.813 30.5858
2.725612 81.967 29.7741
2.745363 82.121 28.9632
2.765257 82.273 28.1532
2.785295 82.425 27.3442
2.805478 82.576 26.5364
2.825808 82.726 25.7297
2.846285 82.876 24.9240
2.866910 83.025 24.1189
2.887685 83.174 23.3142
2.908611 83.322 22.5094
2.929688 83.469 21.7038
2.950917 83.616 20.8969
2.972301 83.762 20.0882
2.993839 83.907 19.2777
3.015534 84.051 18.4656
3.037386 84.194 17.6520
3.059396 84.336 16.8376
3.081565 84.477 16.0228
3.103896 84.617 15.2080
3.126388 84.756 14.3936
3.149043 84.895 13.5800
3.171862 85.032 12.7675
3.194847 85.169 11.9561
3.217998 85.306 11.1458
3.241317 85.442 10.3364
3.264805 85.577 9.5275
3.288463 85.711 8.7185
3.312293 85.845 7.9087
3.336295 85.978 7.0974
3.360471 86.110 6.2844
3.384822 86.241 5.4697
3.409350 86.371 4.6534
3.434056 86.500 3.8362
3.458940 86.628 3.0184
3.484005 86.755 2.2007
3.509252 86.882 1.3835
3.534681 87.007 0.5675
3.560295 87.132 -0.2473
3.586094 87.257 -1.0605
3.612081 87.380 -1.8726
3.638255 87.503 -2.6835
3.664620 87.625 -3.4941
3.691175 87.747 -4.3051
3.717923 87.867 -5.1169
3.744864 87.986 -5.9299
3.772001 88.105 -6.7440
3.799335 88.223 -7.5590
3.826866 88.339 -8.3741
3.854597 88.455 -9.1891
3.882529 88.570 -10.0032
3.910664 88.684 -10.8160
3.939002 88.798 -11.6272
3.967546 88.911 -12.4368
3.996296 89.023 -13.2449
4.025255 89.134 -14.0521
4.054423 89.244 -14.8589
4.083804 89.354 -15.6660
4.113396 89.463 -16.4738
4.143204 89.570 -17.2820
4.173227 89.677 -18.0906
4.203468 89.783 -18.8990
4.233928 89.888 -19.7067
4.264609 89.992 -20.5129
4.295512 90.096 -21.3176
4.326639 90.199 -22.1202
4.357992 90.301 -22.9209
4.389572 90.402 -23.7200
4.421380 90.502 -24.5180
4.453419 90.602 -25.3156
4.485691 90.700 -26.1129
4.518196 90.798 -26.9102
4.550936 90.895 -27.7069
4.583914 90.991 -28.5028
4.617131 91.086 -29.2973
4.650589 91.181 -30.0900
4.684289 91.275 -30.8804
4.718233 91.368 -31.6687
4.752424 91.460 -32.4549
4.786862 91.551 -33.2395
4.821549 91.642 -34.0229
4.856488 91.732 -34.8055
4.891680 91.820 -35.5872
4.927127 91.909 -36.3679
4.962831 91.996 -37.1470
4.998794 92.082 -37.9243
5.035017 92.168 -38.6994
5.071503 92.253 -39.4720
5.108253 92.338 -40.2422
5.145270 92.421 -41.0103
5.182555 92.504 -41.7765
5.220110 92.586 -42.5413
5.257937 92.668 -43.3047
5.296038 92.748 -44.0665
5.334415 92.828 -44.8265
5.373071 92.907 -45.5844
5.412006 92.986 -46.3397
5.451224 93.064 -47.0925
5.490725 93.141 -47.8428
5.530514 93.217 -48.5908
5.570590 93.293 -49.3369
5.610957 93.368 -50.0811
5.651616 93.442 -50.8235
5.692570 93.516 -51.5639
5.733821 93.589 -52.3021
5.775370 93.662 -53.0378
5.817221 93.733 -53.7710
5.859375 93.804 -54.5017
5.901834 93.875 -55.2301
5.944602 93.945 -55.9564
5.987679 94.014 -56.6807
6.031068 94.083 -57.4030
6.074771 94.151 -58.1232
6.118792 94.218 -58.8409
6.163131 94.285 -59.5563
6.207792 94.351 -60.2692
6.252776 94.417 -60.9797
6.298086 94.482 -61.6880
6.343725 94.547 -62.3942
6.389694 94.610 -63.0983
6.435996 94.674 -63.8002
6.482634 94.736 -64.4998
6.529610 94.799 -65.1970
6.576926 94.860 -65.8917
6.624585 94.921 -66.5841
6.672590 94.982 -67.2743
6.720942 95.041 -67.9623
6.769645 95.101 -68.6481
6.818700 95.159 -69.3315
6.868111 95.218 -70.0126
6.917881 95.275 -70.6911
6.968010 95.332 -71.3672
7.018504 95.389 -72.0408
7.069362 95.445 -72.7122
7.120590 95.500 -73.3812
7.172189 95.555 -74.0477
7.224161 95.610 -74.7119
7.276511 95.664 -75.3735
7.329239 95.717 -76.0325
7.382350 95.770 -76.6890
7.435845 95.823 -77.3431
7.489729 95.875 -77.9948
7.544002 95.926 -78.6440
7.598669 95.977 -79.2908
7.653732 96.028 -79.9351
7.709194 96.078 -80.5769
7.765058 96.127 -81.2163
7.821327 96.177 -81.8534
7.878004 96.225 -82.4882
7.935091 96.274 -83.1207
7.992592 96.322 -83.7510
8.050510 96.369 -84.3790
8.108847 96.416 -85.0050
8.167607 96.463 -85.6289
8.226793 96.509 -86.2508
8.286408 96.555 -86.8707
8.346454 96.601 -87.4888
8.406936 96.646 -88.1050
8.467856 96.691 -88.7194
8.529218 96.735 -89.3320
8.591024 96.779 -89.9430
8.653278 96.822 -90.5522
8.715983 96.865 -91.1598
8.779143 96.907 -91.7656
8.842760 96.949 -92.3698
8.906839 96.990 -92.9722
8.971381 97.031 -93.5730
9.036392 97.072 -94.1719
9.101873 97.112 -94.7689
9.167829 97.151 -95.3639
9.234263 97.190 -95.9569
9.301178 97.228 -96.5477
9.368578 97.266 -97.1364
9.436467 97.303 -97.7227
9.504847 97.340 -98.3065
9.573723 97.376 -98.8876
9.643099 97.412 -99.4661
9.712976 97.447 -100.0419
9.783361 97.482 -100.6149
9.854255 97.516 -101.1848
9.925663 97.550 -101.7520
9.997588 97.583 -102.3160
10.070035 97.616 -102.8772
10.143007 97.649 -103.4355
10.216507 97.681 -103.9911
10.290540 97.714 -104.5439
10.365109 97.745 -105.0941
10.440219 97.777 -105.6420
10.515873 97.808 -106.1876
10.592076 97.840 -106.7311
10.668830 97.870 -107.2729
10.746141 97.901 -107.8130
10.824012 97.932 -108.3516
10.902447 97.962 -108.8889
10.981451 97.992 -109.4252
11.061027 98.021 -109.9604
11.141180 98.050 -110.4947
11.221913 98.079 -111.0281
11.303232 98.107 -111.5605
11.385140 98.135 -112.0919
11.467641 98.162 -112.6222
11.550741 98.189 -113.1511
11.634442 98.215 -113.6785
11.718750 98.241 -114.2039
11.803669 98.266 -114.7271
11.889203 98.290 -115.2477
11.975357 98.314 -115.7655
12.062136 98.337 -116.2799
12.149543 98.360 -116.7907
12.237583 98.382 -117.2976
12.326262 98.403 -117.8005
12.415583 98.425 -118.2991
12.505552 98.446 -118.7934
12.596172 98.467 -119.2834
12.687449 98.488 -119.7694
12.779387 98.509 -120.2515
12.871992 98.529 -120.7300
12.965268 98.550 -121.2056
13.059220 98.572 -121.6785
13.153852 98.593 -122.1494
13.249170 98.614 -122.6189
13.345179 98.636 -123.0875
13.441884 98.657 -123.5558
13.539289 98.679 -124.0243
13.637401 98.701 -124.4933
13.736223 98.722 -124.9631
13.835761 98.743 -125.4337
13.936021 98.764 -125.9053
14.037007 98.785 -126.3776
14.138725 98.805 -126.8504
14.241180 98.824 -127.3231
14.344377 98.843 -127.7953
14.448323 98.861 -128.2664
14.553021 98.878 -128.7357
14.658478 98.895 -129.2027
14.764700 98.911 -129.6667
14.871691 98.927 -130.1273
14.979457 98.942 -130.5841
15.088005 98.957 -131.0369
15.197339 98.971 -131.4857
15.307465 98.986 -131.9306
15.418389 99.000 -132.3719
15.530117 99.015 -132.8099
15.642655 99.029 -133.2453
15.756008 99.044 -133.6786
15.870182 99.058 -134.1104
15.985184 99.073 -134.5413
16.101019 99.088 -134.9718
16.217694 99.103 -135.4022
16.335214 99.117 -135.8328
16.453586 99.131 -136.2635
16.572815 99.145 -136.6944
16.692909 99.159 -137.1250
16.813872 99.171 -137.5549
16.935713 99.184 -137.9836
17.058436 99.196 -138.4106
17.182048 99.207 -138.8354
17.306556 99.218 -139.2574
17.431967 99.228 -139.6763
17.558286 99.239 -140.0920
17.685521 99.249 -140.5044
17.813677 99.258 -140.9137
17.942762 99.268 -141.3201
18.072783 99.278 -141.7240
18.203746 99.288 -142.1260
18.335658 99.297 -142.5266
18.468526 99.307 -142.9261
18.602356 99.317 -143.3249
18.737156 99.326 -143.7233
18.872934 99.336 -144.1212
19.009695 99.344 -144.5186
19.147447 99.353 -144.9152
19.286197 99.361 -145.3107
19.425953 99.369 -145.7047
19.566721 99.377 -146.0968
19.708510 99.384 -146.4868
19.851326 99.391 -146.8743
19.995177 99.397 -147.2594
20.140070 99.404 -147.6422
20.286013 99.410 -148.0228
20.433014 99.417 -148.4018
20.581080 99.423 -148.7794
20.730219 99.429 -149.1561
20.880439 99.436 -149.5322
21.031747 99.442 -149.9079
21.184152 99.447 -150.2833
21.337661 99.453 -150.6581
21.492282 99.458 -151.0323
21.648024 99.463 -151.4051
21.804895 99.467 -151.7761
21.962902 99.471 -152.1448
22.122054 99.474 -152.5106
22.282360 99.477 -152.8730
22.443827 99.480 -153.2320
22.606464 99.483 -153.5873
22.770280 99.485 -153.9392
22.935283 99.488 -154.2878
23.101481 99.491 -154.6335
23.268884 99.494 -154.9768
23.437500 99.497 -155.3181
23.607338 99.500 -155.6577
23.778406 99.503 -155.9960
23.950714 99.506 -156.3333
24.124271 99.510 -156.6697
24.299086 99.513 -157.0056
24.475167 99.517 -157.3411
24.652524 99.520 -157.6765
24.831166 99.524 -158.0122
25.011103 99.528 -158.3487
25.192344 99.531 -158.6863
25.374898 99.534 -159.0254
25.558775 99.538 -159.3661
25.743984 99.540 -159.7086
25.930536 99.542 -160.0524
26.118439 99.544 -160.3970
26.307704 99.544 -160.7417
26.498341 99.544 -161.0856
26.690359 99.544 -161.4278
26.883768 99.542 -161.7675
27.078579 99.540 -162.1040
27.274801 99.537 -162.4371
27.472446 99.534 -162.7667
27.671522 99.531 -163.0932
27.872042 99.527 -163.4168
28.074014 99.524 -163.7382
28.277450 99.520 -164.0576
28.482360 99.516 -164.3755
28.688755 99.512 -164.6918
28.896645 99.507 -165.0063
29.106042 99.502 -165.3190
29.316957 99.496 -165.6293
29.529400 99.491 -165.9368
29.743382 99.485 -166.2412
29.958915 99.479 -166.5422
30.176009 99.472 -166.8394
30.394677 99.466 -167.1326
30.614929 99.459 -167.4212
30.836778 99.453 -167.7051
31.060234 99.447 -167.9840
31.285309 99.441 -168.2583
31.512015 99.437 -168.5287
31.740364 99.433 -168.7966
31.970368 99.430 -169.0640
32.202039 99.429 -169.3333
32.435388 99.428 -169.6071
32.670428 99.429 -169.8875
32.907171 99.429 -170.1758
33.145630 99.430 -170.4725
33.385817 99.430 -170.7769
33.627745 99.429 -171.0872
33.871425 99.427 -171.4010
34.116871 99.424 -171.7159
34.364096 99.420 -172.0294
34.613113 99.415 -172.3397
34.863934 99.409 -172.6456
35.116572 99.403 -172.9469
35.371041 99.397 -173.2438
35.627354 99.391 -173.5369
35.885525 99.385 -173.8277
36.145566 99.380 -174.1177
36.407492 99.376 -174.4084
36.671316 99.371 -174.7017
36.937051 99.367 -174.9986
37.204712 99.362 -175.2997
37.474313 99.357 -175.6045
37.745867 99.350 -175.9120
38.019389 99.343 -176.2201
38.294893 99.335 -176.5266
38.572394 99.326 -176.8294
38.851905 99.316 -177.1273
39.133442 99.305 -177.4199
39.417019 99.295 -177.7075
39.702651 99.285 -177.9915
39.990353 99.274 -178.2731
40.280140 99.264 -178.5535
40.572026 99.254 -178.8336
40.866028 99.244 -179.1135
41.162160 99.233 -179.3931
41.460438 99.222 -179.6718
41.760877 99.211 -179.9493
42.063494 99.199 179.7748
42.368303 99.187 179.5002
42.675322 99.176 179.2268
42.984565 99.164 178.9537
43.296048 99.152 178.6801
43.609789 99.140 178.4055
43.925804 99.128 178.1301
44.244108 99.115 177.8546
44.564719 99.102 177.5804
44.887654 99.088 177.3090
45.212928 99.074 177.0413
45.540560 99.061 176.7773
45.870565 99.047 176.5161
46.202962 99.035 176.2557
46.537768 99.022 175.9943
46.875000 99.010 175.7305
47.214676 98.997 175.4644
47.556813 98.984 175.1973
47.901429 98.971 174.9309
48.248542 98.957 174.6672
48.598171 98.942 174.4069
48.950334 98.928 174.1495
49.305048 98.914 173.8938
49.662333 98.900 173.6381
50.022206 98.886 173.3810
50.384688 98.872 173.1217
50.749796 98.858 172.8601
51.117550 98.843 172.5961
51.487969 98.828 172.3297
51.861072 98.812 172.0613
52.236879 98.796 171.7921
52.615409 98.779 171.5231
52.996681 98.761 171.2554
53.380717 98.744 170.9888
53.767536 98.726 170.7227
54.157158 98.708 170.4561
54.549603 98.690 170.1884
54.944892 98.671 169.9204
55.343045 98.653 169.6534
55.744084 98.634 169.3877
56.148028 98.615 169.1228
56.554900 98.595 168.8579
56.964720 98.575 168.5936
57.377510 98.554 168.3326
57.793291 98.533 168.0789
58.212085 98.510 167.8351
58.633914 98.488 167.6006
59.058799 98.467 167.3713
59.486764 98.447 167.1422
59.917829 98.428 166.9092
60.352019 98.408 166.6715
60.789354 98.387 166.4305
61.229859 98.366 166.1882
61.673556 98.344 165.9463
62.120468 98.322 165.7057
62.570618 98.300 165.4665
63.024031 98.277 165.2277
63.480729 98.255 164.9883
63.940736 98.233 164.7477
64.404077 98.210 164.5067
64.870776 98.188 164.2670
65.340856 98.165 164.0303
65.814343 98.142 163.7974
66.291261 98.119 163.5676
66.771635 98.096 163.3394
67.255489 98.074 163.1108
67.742850 98.051 162.8790
68.233743 98.028 162.6413
68.728193 98.004 162.3967
69.226226 97.977 162.1484
69.727867 97.948 161.9033
70.233144 97.916 161.6693
70.742083 97.884 161.4500
71.254709 97.853 161.2422
71.771050 97.823 161.0375
72.291132 97.795 160.8271
72.814984 97.767 160.6074
73.342631 97.739 160.3802
73.874102 97.711 160.1503
74.409424 97.683 159.9215
74.948626 97.654 159.6948
75.491734 97.626 159.4702
76.038779 97.598 159.2474
76.589787 97.570 159.0267
77.144788 97.542 158.8071
77.703811 97.514 158.5874
78.266885 97.485 158.3670
78.834039 97.455 158.1464
79.405303 97.424 157.9269
79.980706 97.392 157.7096
80.560280 97.360 157.4955
81.144053 97.327 157.2844
81.732056 97.294 157.0745
82.324320 97.261 156.8629
82.920876 97.228 156.6479
83.521755 97.195 156.4303
84.126988 97.162 156.2115
84.736607 97.128 155.9933
85.350643 97.094 155.7769
85.969129 97.060 155.5634
86.592097 97.025 155.3537
87.219579 96.990 155.1476
87.851608 96.955 154.9440
88.488217 96.919 154.7416
89.129439 96.884 154.5392
89.775308 96.848 154.3362
90.425856 96.811 154.1323
