* Measurement data measured by REW V5.31.3
* Source: Headset (2- CX31993 HIFI AUDIO), no input selected, R, volume: no control
* Format: 256k Log Swept Sine, 1 sweep at -12.0 dBFS with no timing reference
* Dated: 10 9, 24 12:30:27 PM
* REW Settings:
*  C-weighting compensation: Off
*  Target level: 75.0 dB
* Note: ; 
* Measurement: Kadenz ECHO B Normal L
* Smoothing: 1/12 octave
* Frequency Step: 96 ppo
* Start Frequency: 0.36621094 Hz
*
* Freq(Hz) SPL(dB) Phase(degrees)
0.366211 62.357 -48.9198
0.368865 62.353 -48.9735
0.371538 62.349 -49.0541
0.374230 62.343 -49.1557
0.376942 62.336 -49.2729
0.379673 62.329 -49.4022
0.382424 62.322 -49.5410
0.385196 62.314 -49.6877
0.387987 62.307 -49.8417
0.390798 62.299 -50.0023
0.393630 62.291 -50.1693
0.396483 62.283 -50.3428
0.399356 62.275 -50.5226
0.402250 62.267 -50.7088
0.405165 62.259 -50.9014
0.408101 62.251 -51.1005
0.411058 62.243 -51.3061
0.414037 62.234 -51.5183
0.417037 62.226 -51.7371
0.420059 62.218 -51.9626
0.423103 62.209 -52.1948
0.426169 62.201 -52.4338
0.429257 62.192 -52.6796
0.432368 62.184 -52.9323
0.435501 62.175 -53.1919
0.438656 62.166 -53.4584
0.441835 62.157 -53.7320
0.445037 62.148 -54.0125
0.448262 62.139 -54.3001
0.451510 62.130 -54.5948
0.454782 62.121 -54.8966
0.458077 62.112 -55.2055
0.461397 62.103 -55.5216
0.464740 62.094 -55.8449
0.468108 62.084 -56.1753
0.471500 62.075 -56.5129
0.474917 62.065 -56.8577
0.478358 62.056 -57.2098
0.481825 62.046 -57.5690
0.485316 62.037 -57.9354
0.488833 62.027 -58.3089
0.492375 62.017 -58.6896
0.495943 62.007 -59.0775
0.499537 61.997 -59.4724
0.503157 61.987 -59.8744
0.506803 61.977 -60.2835
0.510475 61.967 -60.6995
0.514175 61.956 -61.1225
0.517900 61.946 -61.5524
0.521653 61.936 -61.9891
0.525434 61.925 -62.4325
0.529241 61.915 -62.8827
0.533076 61.904 -63.3394
0.536939 61.893 -63.8027
0.540830 61.882 -64.2724
0.544749 61.872 -64.7485
0.548696 61.861 -65.2308
0.552673 61.850 -65.7192
0.556677 61.838 -66.2137
0.560711 61.827 -66.7141
0.564774 61.816 -67.2202
0.568867 61.805 -67.7321
0.572989 61.793 -68.2494
0.577141 61.782 -68.7721
0.581324 61.770 -69.3001
0.585536 61.758 -69.8332
0.589779 61.747 -70.3712
0.594053 61.735 -70.9140
0.598358 61.723 -71.4615
0.602694 61.711 -72.0134
0.607061 61.699 -72.5697
0.611460 61.686 -73.1300
0.615891 61.674 -73.6944
0.620354 61.662 -74.2626
0.624849 61.649 -74.8344
0.629377 61.637 -75.4096
0.633938 61.624 -75.9882
0.638532 61.611 -76.5699
0.643159 61.598 -77.1546
0.647819 61.585 -77.7421
0.652514 61.572 -78.3322
0.657242 61.559 -78.9248
0.662005 61.546 -79.5197
0.666802 61.533 -80.1168
0.671634 61.519 -80.7160
0.676501 61.506 -81.3171
0.681403 61.492 -81.9200
0.686341 61.478 -82.5245
0.691314 61.465 -83.1307
0.696324 61.450 -83.7386
0.701370 61.436 -84.3480
0.706452 61.422 -84.9594
0.711571 61.407 -85.5729
0.716728 61.391 -86.1894
0.721921 61.374 -86.8101
0.727153 61.356 -87.4366
0.732422 61.335 -88.0715
0.737729 61.312 -88.7177
0.743075 61.286 -89.3781
0.748460 61.257 -90.0554
0.753883 61.225 -90.7514
0.759346 61.192 -91.4676
0.764849 61.156 -92.2048
0.770391 61.117 -92.9638
0.775974 61.077 -93.7449
0.781597 61.035 -94.5485
0.787261 60.990 -95.3748
0.792966 60.944 -96.2241
0.798712 60.896 -97.0965
0.804500 60.847 -97.9920
0.810329 60.795 -98.9109
0.816201 60.743 -99.8532
0.822116 60.688 -100.8189
0.828073 60.633 -101.8081
0.834074 60.576 -102.8207
0.840118 60.518 -103.8568
0.846206 60.459 -104.9162
0.852338 60.399 -105.9989
0.858514 60.338 -107.1048
0.864735 60.276 -108.2337
0.871001 60.214 -109.3855
0.877313 60.151 -110.5599
0.883670 60.088 -111.7567
0.890074 60.025 -112.9757
0.896524 59.961 -114.2166
0.903020 59.898 -115.4791
0.909564 59.835 -116.7630
0.916155 59.772 -118.0679
0.922794 59.710 -119.3937
0.929481 59.649 -120.7398
0.936216 59.589 -122.1062
0.943000 59.530 -123.4926
0.949834 59.473 -124.8986
0.956717 59.417 -126.3242
0.963649 59.363 -127.7691
0.970632 59.311 -129.2334
0.977666 59.261 -130.7168
0.984750 59.214 -132.2196
0.991886 59.170 -133.7418
0.999074 59.129 -135.2837
1.006314 59.092 -136.8457
1.013606 59.058 -138.4281
1.020951 59.028 -140.0318
1.028349 59.002 -141.6573
1.035801 58.982 -143.3058
1.043307 58.966 -144.9785
1.050867 58.955 -146.6768
1.058482 58.951 -148.4027
1.066152 58.952 -150.1585
1.073878 58.960 -151.9474
1.081660 58.974 -153.7731
1.089498 58.995 -155.6403
1.097393 59.023 -157.5547
1.105345 59.058 -159.5220
1.113355 59.100 -161.5476
1.121423 59.149 -163.6349
1.129549 59.204 -165.7856
1.137734 59.267 -167.9996
1.145979 59.335 -170.2747
1.154283 59.410 -172.6079
1.162647 59.492 -174.9946
1.171072 59.579 -177.4293
1.179558 59.673 -179.9059
1.188106 59.773 177.5828
1.196715 59.878 175.0442
1.205387 59.990 172.4862
1.214122 60.107 169.9171
1.222920 60.229 167.3450
1.231782 60.357 164.7780
1.240708 60.490 162.2240
1.249699 60.628 159.6904
1.258754 60.770 157.1838
1.267876 60.918 154.7106
1.277063 61.069 152.2759
1.286318 61.225 149.8844
1.295639 61.385 147.5397
1.305027 61.549 145.2448
1.314484 61.716 143.0017
1.324009 61.886 140.8118
1.333604 62.059 138.6757
1.343268 62.235 136.5935
1.353002 62.413 134.5648
1.362806 62.593 132.5884
1.372681 62.775 130.6631
1.382628 62.958 128.7872
1.392647 63.143 126.9586
1.402739 63.328 125.1752
1.412904 63.513 123.4346
1.423142 63.699 121.7344
1.433455 63.885 120.0721
1.443843 64.072 118.4455
1.454305 64.260 116.8525
1.464844 64.449 115.2915
1.475459 64.641 113.7616
1.486150 64.836 112.2622
1.496920 65.035 110.7931
1.507767 65.238 109.3542
1.518693 65.446 107.9452
1.529698 65.659 106.5659
1.540783 65.876 105.2155
1.551948 66.097 103.8935
1.563194 66.323 102.5988
1.574521 66.552 101.3304
1.585931 66.785 100.0872
1.597423 67.021 98.8680
1.608999 67.260 97.6715
1.620658 67.502 96.4963
1.632402 67.745 95.3410
1.644232 67.991 94.2043
1.656146 68.238 93.0847
1.668147 68.486 91.9808
1.680235 68.735 90.8912
1.692411 68.984 89.8146
1.704675 69.233 88.7495
1.717028 69.482 87.6945
1.729470 69.729 86.6484
1.742003 69.974 85.6097
1.754626 70.218 84.5773
1.767341 70.459 83.5500
1.780147 70.697 82.5267
1.793047 70.932 81.5065
1.806040 71.164 80.4888
1.819128 71.392 79.4734
1.832310 71.616 78.4607
1.845587 71.838 77.4512
1.858961 72.057 76.4460
1.872432 72.273 75.4463
1.886001 72.488 74.4529
1.899667 72.700 73.4667
1.913433 72.911 72.4883
1.927299 73.120 71.5181
1.941265 73.327 70.5564
1.955332 73.533 69.6033
1.969501 73.737 68.6587
1.983773 73.940 67.7225
1.998148 74.141 66.7946
2.012627 74.341 65.8744
2.027212 74.541 64.9617
2.041902 74.739 64.0559
2.056698 74.936 63.1565
2.071602 75.132 62.2629
2.086614 75.327 61.3744
2.101734 75.522 60.4903
2.116964 75.716 59.6099
2.132304 75.910 58.7325
2.147756 76.103 57.8571
2.163320 76.296 56.9833
2.178996 76.488 56.1103
2.194786 76.680 55.2379
2.210690 76.870 54.3659
2.226710 77.059 53.4944
2.242845 77.247 52.6239
2.259098 77.434 51.7548
2.275468 77.619 50.8876
2.291957 77.802 50.0229
2.308566 77.984 49.1609
2.325295 78.165 48.3020
2.342145 78.344 47.4465
2.359117 78.522 46.5944
2.376212 78.699 45.7458
2.393431 78.874 44.9006
2.410775 79.049 44.0588
2.428244 79.223 43.2201
2.445840 79.396 42.3842
2.463564 79.568 41.5508
2.481416 79.740 40.7195
2.499397 79.911 39.8897
2.517509 80.082 39.0609
2.535752 80.252 38.2325
2.554127 80.421 37.4038
2.572635 80.589 36.5743
2.591277 80.757 35.7437
2.610055 80.923 34.9118
2.628968 81.089 34.0790
2.648019 81.253 33.2454
2.667208 81.415 32.4117
2.686535 81.577 31.5783
2.706003 81.737 30.7456
2.725612 81.896 29.9142
2.745363 82.054 29.0842
2.765257 82.212 28.2561
2.785295 82.368 27.4301
2.805478 82.523 26.6061
2.825808 82.678 25.7842
2.846285 82.832 24.9644
2.866910 82.985 24.1461
2.887685 83.137 23.3292
2.908611 83.289 22.5128
2.929688 83.440 21.6965
2.950917 83.590 20.8794
2.972301 83.739 20.0610
2.993839 83.887 19.2412
3.015534 84.034 18.4202
3.037386 84.180 17.5981
3.059396 84.324 16.7756
3.081565 84.468 15.9532
3.103896 84.610 15.1315
3.126388 84.752 14.3109
3.149043 84.892 13.4918
3.171862 85.032 12.6744
3.194847 85.171 11.8591
3.217998 85.309 11.0459
3.241317 85.446 10.2344
3.264805 85.583 9.4242
3.288463 85.718 8.6147
3.312293 85.853 7.8052
3.336295 85.987 6.9948
3.360471 86.120 6.1830
3.384822 86.252 5.3699
3.409350 86.383 4.5558
3.434056 86.512 3.7411
3.458940 86.641 2.9265
3.484005 86.768 2.1124
3.509252 86.895 1.2997
3.534681 87.021 0.4886
3.560295 87.146 -0.3203
3.586094 87.270 -1.1270
3.612081 87.393 -1.9313
3.638255 87.516 -2.7338
3.664620 87.638 -3.5349
3.691175 87.759 -4.3357
3.717923 87.879 -5.1366
3.744864 87.998 -5.9380
3.772001 88.115 -6.7399
3.799335 88.232 -7.5420
3.826866 88.348 -8.3438
3.854597 88.463 -9.1448
3.882529 88.577 -9.9443
3.910664 88.691 -10.7419
3.939002 88.803 -11.5372
3.967546 88.915 -12.3302
3.996296 89.026 -13.1209
4.025255 89.136 -13.9099
4.054423 89.245 -14.6976
4.083804 89.354 -15.4850
4.113396 89.461 -16.2721
4.143204 89.568 -17.0592
4.173227 89.673 -17.8460
4.203468 89.778 -18.6320
4.233928 89.882 -19.4168
4.264609 89.985 -20.1998
4.295512 90.087 -20.9807
4.326639 90.189 -21.7591
4.357992 90.290 -22.5352
4.389572 90.390 -23.3091
4.421380 90.489 -24.0814
4.453419 90.588 -24.8527
4.485691 90.685 -25.6232
4.518196 90.782 -26.3930
4.550936 90.878 -27.1620
4.583914 90.974 -27.9297
4.617131 91.068 -28.6959
4.650589 91.162 -29.4602
4.684289 91.255 -30.2223
4.718233 91.347 -30.9821
4.752424 91.439 -31.7397
4.786862 91.530 -32.4957
4.821549 91.620 -33.2504
4.856488 91.710 -34.0041
4.891680 91.799 -34.7568
4.927127 91.887 -35.5084
4.962831 91.974 -36.2587
4.998794 92.061 -37.0072
5.035017 92.146 -37.7539
5.071503 92.232 -38.4985
5.108253 92.316 -39.2411
5.145270 92.401 -39.9819
5.182555 92.484 -40.7214
5.220110 92.567 -41.4597
5.257937 92.649 -42.1970
5.296038 92.730 -42.9330
5.334415 92.810 -43.6676
5.373071 92.890 -44.4006
5.412006 92.970 -45.1318
5.451224 93.048 -45.8611
5.490725 93.126 -46.5886
5.530514 93.204 -47.3146
5.570590 93.281 -48.0392
5.610957 93.357 -48.7627
5.651616 93.432 -49.4850
5.692570 93.507 -50.2059
5.733821 93.581 -50.9252
5.775370 93.655 -51.6428
5.817221 93.728 -52.3586
5.859375 93.800 -53.0728
5.901834 93.872 -53.7853
5.944602 93.943 -54.4965
5.987679 94.014 -55.2063
6.031068 94.084 -55.9149
6.074771 94.153 -56.6219
6.118792 94.222 -57.3273
6.163131 94.290 -58.0308
6.207792 94.357 -58.7325
6.252776 94.424 -59.4325
6.298086 94.490 -60.1309
6.343725 94.556 -60.8278
6.389694 94.621 -61.5232
6.435996 94.685 -62.2170
6.482634 94.749 -62.9091
6.529610 94.812 -63.5994
6.576926 94.875 -64.2877
6.624585 94.937 -64.9742
6.672590 94.999 -65.6591
6.720942 95.060 -66.3423
6.769645 95.120 -67.0239
6.818700 95.180 -67.7037
6.868111 95.239 -68.3817
6.917881 95.298 -69.0577
6.968010 95.356 -69.7319
7.018504 95.414 -70.4042
7.069362 95.471 -71.0748
7.120590 95.527 -71.7437
7.172189 95.583 -72.4108
7.224161 95.639 -73.0760
7.276511 95.694 -73.7394
7.329239 95.748 -74.4008
7.382350 95.802 -75.0603
7.435845 95.856 -75.7180
7.489729 95.908 -76.3740
7.544002 95.961 -77.0281
7.598669 96.013 -77.6802
7.653732 96.064 -78.3304
7.709194 96.115 -78.9787
7.765058 96.165 -79.6250
7.821327 96.214 -80.2694
7.878004 96.264 -80.9119
7.935091 96.312 -81.5524
7.992592 96.360 -82.1907
8.050510 96.408 -82.8270
8.108847 96.455 -83.4611
8.167607 96.501 -84.0930
8.226793 96.547 -84.7228
8.286408 96.593 -85.3503
8.346454 96.637 -85.9756
8.406936 96.682 -86.5983
8.467856 96.726 -87.2186
8.529218 96.769 -87.8364
8.591024 96.812 -88.4518
8.653278 96.854 -89.0645
8.715983 96.896 -89.6744
8.779143 96.937 -90.2816
8.842760 96.978 -90.8860
8.906839 97.018 -91.4874
8.971381 97.058 -92.0859
9.036392 97.097 -92.6815
9.101873 97.136 -93.2740
9.167829 97.174 -93.8633
9.234263 97.212 -94.4495
9.301178 97.249 -95.0325
9.368578 97.286 -95.6123
9.436467 97.323 -96.1888
9.504847 97.359 -96.7622
9.573723 97.395 -97.3323
9.643099 97.431 -97.8990
9.712976 97.466 -98.4626
9.783361 97.501 -99.0231
9.854255 97.536 -99.5804
9.925663 97.570 -100.1346
9.997588 97.604 -100.6858
10.070035 97.638 -101.2341
10.143007 97.671 -101.7795
10.216507 97.704 -102.3221
10.290540 97.737 -102.8621
10.365109 97.770 -103.3995
10.440219 97.802 -103.9345
10.515873 97.835 -104.4672
10.592076 97.867 -104.9976
10.668830 97.898 -105.5259
10.746141 97.930 -106.0521
10.824012 97.961 -106.5765
10.902447 97.992 -107.0991
10.981451 98.022 -107.6198
11.061027 98.052 -108.1388
11.141180 98.082 -108.6561
11.221913 98.112 -109.1718
11.303232 98.141 -109.6857
11.385140 98.170 -110.1980
11.467641 98.198 -110.7084
11.550741 98.226 -111.2170
11.634442 98.253 -111.7238
11.718750 98.280 -112.2285
11.803669 98.307 -112.7310
11.889203 98.333 -113.2313
11.975357 98.358 -113.7293
12.062136 98.383 -114.2249
12.149543 98.408 -114.7178
12.237583 98.432 -115.2081
12.326262 98.456 -115.6957
12.415583 98.480 -116.1805
12.505552 98.503 -116.6627
12.596172 98.525 -117.1421
12.687449 98.548 -117.6188
12.779387 98.570 -118.0929
12.871992 98.592 -118.5645
12.965268 98.613 -119.0338
13.059220 98.634 -119.5009
13.153852 98.655 -119.9658
13.249170 98.676 -120.4290
13.345179 98.697 -120.8902
13.441884 98.717 -121.3499
13.539289 98.737 -121.8079
13.637401 98.756 -122.2644
13.736223 98.775 -122.7194
13.835761 98.794 -123.1727
13.936021 98.813 -123.6245
14.037007 98.830 -124.0745
14.138725 98.848 -124.5225
14.241180 98.865 -124.9684
14.344377 98.882 -125.4120
14.448323 98.898 -125.8530
14.553021 98.914 -126.2915
14.658478 98.930 -126.7271
14.764700 98.945 -127.1599
14.871691 98.960 -127.5897
14.979457 98.975 -128.0167
15.088005 98.990 -128.4409
15.197339 99.005 -128.8625
15.307465 99.020 -129.2818
15.418389 99.034 -129.6990
15.530117 99.049 -130.1143
15.642655 99.064 -130.5281
15.756008 99.078 -130.9407
15.870182 99.093 -131.3522
15.985184 99.107 -131.7629
16.101019 99.121 -132.1730
16.217694 99.136 -132.5823
16.335214 99.150 -132.9910
16.453586 99.164 -133.3989
16.572815 99.177 -133.8060
16.692909 99.191 -134.2121
16.813872 99.204 -134.6171
16.935713 99.217 -135.0210
17.058436 99.229 -135.4236
17.182048 99.242 -135.8250
17.306556 99.254 -136.2252
17.431967 99.267 -136.6244
17.558286 99.279 -137.0226
17.685521 99.290 -137.4198
17.813677 99.302 -137.8161
17.942762 99.313 -138.2114
18.072783 99.324 -138.6055
18.203746 99.334 -138.9980
18.335658 99.344 -139.3883
18.468526 99.353 -139.7759
18.602356 99.362 -140.1600
18.737156 99.370 -140.5401
18.872934 99.378 -140.9153
19.009695 99.386 -141.2855
19.147447 99.394 -141.6504
19.286197 99.402 -142.0101
19.425953 99.410 -142.3655
19.566721 99.419 -142.7173
19.708510 99.428 -143.0669
19.851326 99.438 -143.4157
19.995177 99.448 -143.7653
20.140070 99.459 -144.1171
20.286013 99.470 -144.4720
20.433014 99.480 -144.8306
20.581080 99.490 -145.1928
20.730219 99.499 -145.5578
20.880439 99.507 -145.9240
21.031747 99.513 -146.2894
21.184152 99.518 -146.6516
21.337661 99.522 -147.0080
21.492282 99.525 -147.3564
21.648024 99.527 -147.6951
21.804895 99.529 -148.0233
21.962902 99.531 -148.3409
22.122054 99.533 -148.6495
22.282360 99.537 -148.9512
22.443827 99.542 -149.2490
22.606464 99.549 -149.5463
22.770280 99.557 -149.8466
22.935283 99.566 -150.1529
23.101481 99.575 -150.4674
23.268884 99.585 -150.7911
23.437500 99.594 -151.1237
23.607338 99.601 -151.4640
23.778406 99.607 -151.8095
23.950714 99.612 -152.1573
24.124271 99.615 -152.5043
24.299086 99.616 -152.8476
24.475167 99.617 -153.1850
24.652524 99.616 -153.5151
24.831166 99.615 -153.8378
25.011103 99.614 -154.1534
25.192344 99.613 -154.4636
25.374898 99.613 -154.7698
25.558775 99.614 -155.0739
25.743984 99.614 -155.3774
25.930536 99.615 -155.6813
26.118439 99.616 -155.9860
26.307704 99.617 -156.2915
26.498341 99.617 -156.5972
26.690359 99.617 -156.9027
26.883768 99.617 -157.2075
27.078579 99.617 -157.5110
27.274801 99.617 -157.8135
27.472446 99.617 -158.1151
27.671522 99.616 -158.4160
27.872042 99.615 -158.7166
28.074014 99.615 -159.0168
28.277450 99.613 -159.3165
28.482360 99.611 -159.6150
28.688755 99.609 -159.9115
28.896645 99.606 -160.2051
29.106042 99.602 -160.4949
29.316957 99.598 -160.7803
29.529400 99.594 -161.0609
29.743382 99.590 -161.3367
29.958915 99.585 -161.6078
30.176009 99.580 -161.8741
30.394677 99.576 -162.1357
30.614929 99.571 -162.3925
30.836778 99.566 -162.6442
31.060234 99.561 -162.8904
31.285309 99.557 -163.1310
31.512015 99.553 -163.3664
31.740364 99.549 -163.5974
31.970368 99.547 -163.8253
32.202039 99.545 -164.0521
32.435388 99.544 -164.2799
32.670428 99.544 -164.5107
32.907171 99.545 -164.7461
33.145630 99.546 -164.9872
33.385817 99.547 -165.2342
33.627745 99.548 -165.4868
33.871425 99.548 -165.7439
34.116871 99.547 -166.0045
34.364096 99.546 -166.2670
34.613113 99.544 -166.5303
34.863934 99.542 -166.7931
35.116572 99.539 -167.0547
35.371041 99.536 -167.3145
35.627354 99.533 -167.5723
35.885525 99.529 -167.8286
36.145566 99.526 -168.0844
36.407492 99.523 -168.3407
36.671316 99.520 -168.5992
36.937051 99.518 -168.8611
37.204712 99.514 -169.1270
37.474313 99.510 -169.3959
37.745867 99.505 -169.6663
38.019389 99.498 -169.9351
38.294893 99.490 -170.1989
38.572394 99.481 -170.4549
38.851905 99.472 -170.7013
39.133442 99.462 -170.9379
39.417019 99.453 -171.1663
39.702651 99.445 -171.3891
39.990353 99.437 -171.6095
40.280140 99.430 -171.8301
40.572026 99.423 -172.0528
40.866028 99.417 -172.2781
41.162160 99.410 -172.5057
41.460438 99.402 -172.7348
41.760877 99.394 -172.9645
42.063494 99.386 -173.1940
42.368303 99.376 -173.4226
42.675322 99.367 -173.6498
42.984565 99.357 -173.8749
43.296048 99.347 -174.0973
43.609789 99.336 -174.3166
43.925804 99.326 -174.5327
44.244108 99.315 -174.7461
44.564719 99.305 -174.9574
44.887654 99.296 -175.1674
45.212928 99.287 -175.3770
45.540560 99.278 -175.5864
45.870565 99.269 -175.7960
46.202962 99.261 -176.0059
46.537768 99.253 -176.2166
46.875000 99.245 -176.4283
47.214676 99.237 -176.6412
47.556813 99.229 -176.8549
47.901429 99.220 -177.0687
48.248542 99.211 -177.2817
48.598171 99.201 -177.4928
48.950334 99.191 -177.7020
49.305048 99.181 -177.9094
49.662333 99.170 -178.1157
50.022206 99.159 -178.3216
50.384688 99.147 -178.5271
50.749796 99.134 -178.7320
51.117550 99.121 -178.9362
51.487969 99.108 -179.1399
51.861072 99.093 -179.3434
52.236879 99.079 -179.5472
52.615409 99.064 -179.7517
52.996681 99.048 -179.9569
53.380717 99.033 179.8367
53.767536 99.017 179.6288
54.157158 99.002 179.4189
54.549603 98.986 179.2068
54.944892 98.970 178.9930
55.343045 98.954 178.7782
55.744084 98.939 178.5631
56.148028 98.923 178.3485
56.554900 98.907 178.1356
56.964720 98.890 177.9267
57.377510 98.874 177.7249
57.793291 98.858 177.5323
58.212085 98.842 177.3492
58.633914 98.829 177.1726
59.058799 98.816 176.9988
59.486764 98.804 176.8248
59.917829 98.792 176.6497
60.352019 98.781 176.4748
60.789354 98.768 176.3018
61.229859 98.756 176.1313
61.673556 98.742 175.9639
62.120468 98.729 175.7991
62.570618 98.714 175.6373
63.024031 98.699 175.4786
63.480729 98.684 175.3222
63.940736 98.668 175.1671
64.404077 98.651 175.0122
64.870776 98.634 174.8580
65.340856 98.616 174.7059
65.814343 98.597 174.5574
66.291261 98.577 174.4128
66.771635 98.557 174.2711
67.255489 98.537 174.1307
67.742850 98.517 173.9905
68.233743 98.497 173.8499
68.728193 98.477 173.7078
69.226226 98.457 173.5629
69.727867 98.437 173.4150
70.233144 98.417 173.2657
70.742083 98.397 173.1168
71.254709 98.377 172.9677
71.771050 98.359 172.8140
72.291132 98.341 172.6511
72.814984 98.324 172.4786
73.342631 98.305 172.3012
73.874102 98.286 172.1255
74.409424 98.266 171.9553
74.948626 98.246 171.7904
75.491734 98.228 171.6288
76.038779 98.209 171.4700
76.589787 98.190 171.3146
77.144788 98.171 171.1638
77.703811 98.151 171.0182
78.266885 98.131 170.8782
78.834039 98.111 170.7438
79.405303 98.090 170.6155
79.980706 98.069 170.4922
80.560280 98.048 170.3721
81.144053 98.027 170.2526
81.732056 98.006 170.1321
82.324320 97.984 170.0107
82.920876 97.961 169.8896
83.521755 97.937 169.7705
84.126988 97.913 169.6544
84.736607 97.889 169.5411
85.350643 97.866 169.4293
85.969129 97.842 169.3173
86.592097 97.819 169.2041
87.219579 97.797 169.0896
87.851608 97.774 168.9740
88.488217 97.751 168.8575
89.129439 97.729 168.7402
