* Measurement data measured by REW V5.30.4
* Source: Headset (2- CX31993 HIFI AUDIO), MICROPHONE (Master Volume), L, volume: 0.500
* Format: 256k Log Swept Sine, 1 sweep at -12.0 dBFS with no timing reference
* Dated: 08 1, 24 3:07:04 PM
* REW Settings:
*  C-weighting compensation: Off
*  Target level: 75.0 dB
* Note: ; 
* Measurement: KZ Castor Bass DDUU L
* Smoothing: 1/12 octave
* Frequency Step: 96 ppo
* Start Frequency: 20.141602 Hz
*
* Freq(Hz) SPL(dB) Phase(degrees)
20.141602 92.153 -156.3099
20.287556 92.164 -156.2778
20.434568 92.179 -156.2789
20.582645 92.198 -156.3031
20.731796 92.217 -156.3412
20.882027 92.237 -156.3862
21.033346 92.257 -156.4348
21.185762 92.276 -156.4890
21.339283 92.295 -156.5397
21.493916 92.314 -156.5867
21.649670 92.334 -156.6305
21.806553 92.356 -156.6731
21.964573 92.379 -156.7168
22.123737 92.403 -156.7710
22.284056 92.429 -156.8337
22.445536 92.456 -156.9049
22.608185 92.484 -156.9860
22.772013 92.512 -157.0773
22.937029 92.541 -157.1781
23.103241 92.568 -157.2916
23.270657 92.595 -157.4135
23.439285 92.621 -157.5380
23.609137 92.645 -157.6622
23.780218 92.669 -157.7836
23.952539 92.691 -157.9000
24.126110 92.713 -158.0159
24.300938 92.735 -158.1275
24.477032 92.756 -158.2332
24.654402 92.779 -158.3339
24.833057 92.801 -158.4311
25.013008 92.824 -158.5270
25.194263 92.847 -158.6290
25.376831 92.871 -158.7317
25.560722 92.895 -158.8356
25.745945 92.920 -158.9408
25.932510 92.944 -159.0470
26.120428 92.969 -159.1586
26.309708 92.993 -159.2731
26.500359 93.018 -159.3872
26.692390 93.042 -159.5009
26.885815 93.067 -159.6141
27.080641 93.092 -159.7298
27.276878 93.118 -159.8497
27.474539 93.143 -159.9703
27.673630 93.168 -160.0919
27.874165 93.194 -160.2146
28.076153 93.219 -160.3402
28.279604 93.243 -160.4697
28.484529 93.267 -160.5992
28.690941 93.291 -160.7278
28.898848 93.314 -160.8551
29.108261 93.337 -160.9832
29.319191 93.360 -161.1116
29.531651 93.382 -161.2378
29.745649 93.405 -161.3620
29.961199 93.427 -161.4844
30.178310 93.449 -161.6096
30.396996 93.471 -161.7350
30.617264 93.493 -161.8606
30.839128 93.516 -161.9874
31.062601 93.538 -162.1175
31.287693 93.560 -162.2540
31.514416 93.582 -162.3944
31.742783 93.604 -162.5391
31.972803 93.625 -162.6882
32.204491 93.647 -162.8444
32.437859 93.668 -163.0042
32.672916 93.688 -163.1659
32.909679 93.709 -163.3284
33.148155 93.730 -163.4938
33.388359 93.751 -163.6602
33.630306 93.773 -163.8253
33.874004 93.795 -163.9888
34.119469 93.818 -164.1526
34.366711 93.841 -164.3166
34.615746 93.864 -164.4785
34.866585 93.888 -164.6383
35.119244 93.911 -164.7978
35.373734 93.934 -164.9580
35.630066 93.957 -165.1178
35.888256 93.979 -165.2786
36.148315 94.000 -165.4441
36.410259 94.020 -165.6142
36.674103 94.038 -165.7870
36.939857 94.055 -165.9619
37.207539 94.072 -166.1396
37.477161 94.088 -166.3182
37.748737 94.105 -166.4969
38.022282 94.122 -166.6766
38.297806 94.141 -166.8617
38.575329 94.161 -167.0498
38.854862 94.182 -167.2409
39.136421 94.203 -167.4349
39.420021 94.224 -167.6294
39.705673 94.244 -167.8203
39.993397 94.263 -168.0049
40.283207 94.280 -168.1846
40.575115 94.297 -168.3581
40.869141 94.314 -168.5289
41.165295 94.330 -168.7041
41.463596 94.346 -168.8887
41.764057 94.363 -169.0850
42.066696 94.380 -169.2945
42.371529 94.397 -169.5161
42.678570 94.415 -169.7433
42.987835 94.433 -169.9688
43.299343 94.453 -170.1874
43.613110 94.473 -170.3908
43.929150 94.495 -170.5769
44.247478 94.518 -170.7512
44.568115 94.541 -170.9191
44.891075 94.564 -171.0896
45.216373 94.585 -171.2729
45.544029 94.603 -171.4742
45.874062 94.617 -171.6941
46.206486 94.626 -171.9308
46.541317 94.633 -172.1777
46.878574 94.639 -172.4278
47.218277 94.645 -172.6780
47.560440 94.652 -172.9254
47.905083 94.661 -173.1689
48.252224 94.672 -173.4096
48.601879 94.685 -173.6468
48.954067 94.697 -173.8794
49.308807 94.709 -174.1079
49.666119 94.720 -174.3324
50.026020 94.731 -174.5548
50.388531 94.741 -174.7798
50.753666 94.751 -175.0071
51.121449 94.761 -175.2386
51.491894 94.771 -175.4745
51.865025 94.781 -175.7119
52.240860 94.791 -175.9496
52.619419 94.800 -176.1857
53.000721 94.809 -176.4196
53.384785 94.817 -176.6546
53.771633 94.826 -176.8907
54.161285 94.834 -177.1304
54.553761 94.842 -177.3743
54.949081 94.850 -177.6203
55.347263 94.856 -177.8676
55.748333 94.861 -178.1131
56.152309 94.865 -178.3557
56.559212 94.868 -178.5956
56.969063 94.870 -178.8326
57.381886 94.871 -179.0704
57.797699 94.872 -179.3085
58.216526 94.875 -179.5495
58.638386 94.880 -179.7966
59.063305 94.887 179.9479
59.491302 94.895 179.6833
59.922401 94.903 179.4144
60.356625 94.910 179.1438
60.793995 94.916 178.8755
61.234531 94.920 178.6096
61.678261 94.922 178.3447
62.125206 94.924 178.0798
62.575390 94.924 177.8141
63.028835 94.924 177.5482
63.485569 94.924 177.2817
63.945610 94.924 177.0172
64.408989 94.924 176.7535
64.875725 94.923 176.4915
65.345840 94.922 176.2304
65.819366 94.920 175.9699
66.296318 94.918 175.7084
66.776726 94.915 175.4462
67.260620 94.912 175.1846
67.748016 94.909 174.9235
68.238945 94.906 174.6606
68.733429 94.903 174.3953
69.231499 94.899 174.1279
69.733177 94.895 173.8574
70.238495 94.890 173.5830
70.747475 94.883 173.3058
71.260139 94.877 173.0279
71.776520 94.870 172.7520
72.296638 94.864 172.4810
72.820526 94.858 172.2142
73.348213 94.852 171.9494
73.879723 94.846 171.6845
74.415085 94.838 171.4166
74.954330 94.830 171.1461
75.497482 94.821 170.8740
76.044571 94.811 170.6010
76.595619 94.801 170.3284
77.150665 94.790 170.0566
77.709732 94.779 169.7850
78.272850 94.768 169.5122
78.840050 94.756 169.2373
79.411354 94.743 168.9611
79.986801 94.730 168.6844
80.566422 94.717 168.4076
81.150238 94.703 168.1320
81.738289 94.690 167.8583
82.330597 94.677 167.5850
82.927200 94.663 167.3127
83.528122 94.649 167.0435
84.133400 94.634 166.7751
84.743065 94.618 166.5057
85.357147 94.602 166.2355
85.975677 94.585 165.9646
86.598694 94.567 165.6956
87.226227 94.549 165.4258
87.858307 94.531 165.1544
88.494965 94.512 164.8839
89.136238 94.492 164.6141
89.782158 94.472 164.3448
90.432755 94.452 164.0750
91.088066 94.431 163.8054
91.748131 94.410 163.5376
92.412979 94.388 163.2705
93.082642 94.365 163.0043
93.757156 94.342 162.7382
94.436562 94.319 162.4735
95.120888 94.295 162.2099
95.810173 94.270 161.9468
96.504456 94.245 161.6859
97.203766 94.220 161.4253
97.908142 94.194 161.1628
98.617622 94.168 160.9027
99.332245 94.142 160.6442
100.052048 94.115 160.3873
100.777069 94.087 160.1306
101.507339 94.059 159.8768
102.242905 94.029 159.6255
102.983795 94.000 159.3763
103.730057 93.969 159.1257
104.481728 93.938 158.8779
105.238846 93.907 158.6331
106.001450 93.875 158.3906
106.769577 93.843 158.1476
107.543274 93.810 157.9070
108.322578 93.777 157.6700
109.107529 93.743 157.4371
109.898170 93.709 157.2045
110.694534 93.673 156.9728
111.496674 93.637 156.7430
112.304626 93.600 156.5139
113.118431 93.563 156.2839
113.938133 93.526 156.0522
114.763779 93.488 155.8171
115.595406 93.452 155.5817
116.433060 93.415 155.3453
117.276779 93.378 155.1122
118.126617 93.340 154.8873
118.982613 93.301 154.6640
119.844810 93.261 154.4457
120.713257 93.221 154.2336
121.587997 93.179 154.0272
122.469070 93.137 153.8267
123.356529 93.095 153.6334
124.250420 93.054 153.4471
125.150787 93.012 153.2656
126.057678 92.970 153.0894
126.971146 92.927 152.9177
127.891228 92.882 152.7451
128.817978 92.836 152.5748
129.751450 92.790 152.4048
130.691681 92.742 152.2331
131.638733 92.694 152.0598
132.592636 92.646 151.8870
133.553452 92.598 151.7144
134.521240 92.550 151.5429
135.496033 92.501 151.3752
136.477890 92.453 151.2123
137.466858 92.404 151.0565
138.462997 92.355 150.9074
139.466354 92.306 150.7635
140.476990 92.255 150.6265
141.494949 92.204 150.4942
142.520279 92.151 150.3672
143.553040 92.097 150.2471
144.593277 92.043 150.1314
145.641052 91.989 150.0184
146.696426 91.935 149.9076
147.759445 91.880 149.8013
148.830170 91.825 149.6982
149.908661 91.770 149.6003
150.994965 91.715 149.5093
152.089142 91.659 149.4197
153.191238 91.604 149.3337
154.301331 91.548 149.2510
155.419464 91.492 149.1713
156.545700 91.435 149.0999
157.680099 91.378 149.0383
158.822708 91.320 148.9848
159.973602 91.262 148.9424
161.132843 91.203 148.9071
162.300476 91.144 148.8796
163.476578 91.084 148.8592
164.661194 91.025 148.8443
165.854401 90.965 148.8345
167.056244 90.905 148.8327
168.266800 90.844 148.8378
169.486130 90.783 148.8520
170.714294 90.721 148.8754
171.951355 90.659 148.9056
173.197388 90.596 148.9424
174.452454 90.533 148.9852
175.716614 90.470 149.0349
176.989929 90.407 149.0967
178.272476 90.346 149.1689
179.564316 90.285 149.2565
180.865509 90.225 149.3638
182.176132 90.165 149.4850
183.496262 90.104 149.6321
184.825958 90.043 149.8032
186.165283 89.983 149.9962
187.514313 89.925 150.2084
188.873123 89.869 150.4326
190.241776 89.817 150.6775
191.620346 89.769 150.9329
193.008911 89.726 151.2102
194.407532 89.688 151.4930
195.816284 89.656 151.7867
197.235245 89.629 152.0707
198.664490 89.606 152.3348
200.104095 89.588 152.5710
201.554138 89.572 152.7735
203.014679 89.557 152.9393
204.485809 89.543 153.0676
205.967590 89.528 153.1618
207.460114 89.512 153.2249
208.963455 89.493 153.2683
210.477692 89.473 153.2949
212.002899 89.449 153.3094
213.539154 89.423 153.3188
215.086548 89.392 153.3296
216.645157 89.357 153.3508
218.215057 89.318 153.3770
219.796341 89.277 153.4109
221.389069 89.234 153.4558
222.993347 89.191 153.5105
224.609253 89.147 153.5787
226.236862 89.104 153.6619
227.876266 89.062 153.7606
229.527557 89.020 153.8743
231.190811 88.978 154.0004
232.866119 88.937 154.1378
234.553558 88.896 154.2791
236.253235 88.857 154.4304
237.965225 88.818 154.5907
239.689621 88.780 154.7550
241.426514 88.743 154.9281
243.175995 88.706 155.1080
244.938141 88.669 155.2921
246.713058 88.632 155.4777
248.500839 88.596 155.6690
250.301575 88.560 155.8592
252.115356 88.527 156.0510
253.942291 88.495 156.2460
255.782455 88.463 156.4427
257.635956 88.433 156.6492
259.502899 88.403 156.8615
261.383362 88.373 157.0809
263.277466 88.343 157.3115
265.185272 88.315 157.5385
267.106903 88.286 157.7588
269.042480 88.259 157.9683
270.992065 88.233 158.1757
272.955780 88.208 158.3808
274.933716 88.184 158.5859
276.925995 88.161 158.7942
278.932709 88.139 158.9980
280.953979 88.118 159.2070
282.989899 88.099 159.4249
285.040558 88.081 159.6410
287.106079 88.063 159.8569
289.186554 88.045 160.0693
291.282104 88.028 160.2769
293.392853 88.012 160.4802
295.518890 87.996 160.6839
297.660339 87.980 160.8867
299.817322 87.966 161.0904
301.989929 87.952 161.2988
304.178284 87.940 161.5054
306.382477 87.927 161.7100
308.602661 87.916 161.9154
310.838928 87.904 162.1199
313.091400 87.894 162.3220
315.360199 87.884 162.5230
317.645416 87.874 162.7188
319.947205 87.865 162.9141
322.265686 87.857 163.1056
324.600952 87.848 163.2948
326.953156 87.839 163.4844
329.322388 87.831 163.6711
331.708801 87.824 163.8560
334.112488 87.816 164.0405
336.533600 87.810 164.2260
338.972260 87.804 164.4093
341.428589 87.799 164.5898
343.902710 87.794 164.7643
346.394775 87.790 164.9345
348.904907 87.786 165.0987
351.433228 87.783 165.2618
353.979858 87.779 165.4208
356.544952 87.776 165.5803
359.128632 87.774 165.7389
361.731018 87.771 165.8931
364.352264 87.769 166.0437
366.992523 87.768 166.1879
369.651917 87.767 166.3332
372.330566 87.765 166.4698
375.028625 87.764 166.6136
377.746246 87.762 166.7528
380.483551 87.761 166.8921
383.240692 87.759 167.0261
386.017822 87.757 167.1576
388.815063 87.755 167.2886
391.632568 87.754 167.4102
394.470490 87.752 167.5291
397.328979 87.752 167.6444
400.208191 87.751 167.7547
403.108276 87.750 167.8690
406.029358 87.748 167.9793
408.971619 87.746 168.0873
411.935181 87.744 168.1950
414.920227 87.742 168.3066
417.926910 87.740 168.4137
420.955383 87.738 168.5244
424.005798 87.735 168.6305
427.078308 87.732 168.7380
430.173096 87.729 168.8452
433.290314 87.727 168.9509
436.430115 87.724 169.0601
439.592682 87.722 169.1661
442.778137 87.720 169.2698
445.986694 87.717 169.3717
449.218506 87.714 169.4767
452.473724 87.712 169.5797
455.752533 87.709 169.6812
459.055115 87.707 169.7800
462.381622 87.704 169.8842
465.732239 87.702 169.9841
469.107117 87.699 170.0827
472.506470 87.696 170.1870
475.930450 87.693 170.2864
479.379242 87.691 170.3862
482.853027 87.688 170.4857
486.351990 87.685 170.5812
489.876282 87.682 170.6802
493.426117 87.679 170.7783
497.001678 87.676 170.8691
500.603149 87.673 170.9670
504.230713 87.670 171.0637
507.884583 87.667 171.1621
511.564911 87.664 171.2592
515.271912 87.661 171.3593
519.005798 87.658 171.4622
522.766724 87.655 171.5602
526.554932 87.651 171.6660
530.370544 87.648 171.7660
534.213806 87.645 171.8745
538.084961 87.641 171.9787
541.984131 87.638 172.0825
545.911560 87.634 172.1926
549.867432 87.631 172.2990
553.851990 87.628 172.4045
557.865417 87.624 172.5113
561.907959 87.621 172.6223
565.979797 87.618 172.7321
570.081116 87.615 172.8437
574.212158 87.612 172.9570
578.373108 87.608 173.0713
582.564209 87.605 173.1875
586.785706 87.602 173.3068
591.037781 87.599 173.4241
595.320679 87.596 173.5431
599.634644 87.593 173.6655
603.979858 87.590 173.7878
608.356567 87.588 173.9120
612.764954 87.585 174.0395
617.205322 87.583 174.1648
621.677856 87.582 174.2951
626.182800 87.580 174.4266
630.720398 87.579 174.5623
635.290833 87.577 174.6989
639.894409 87.576 174.8376
644.531372 87.575 174.9804
649.201904 87.574 175.1252
653.906311 87.573 175.2704
658.644775 87.573 175.4209
663.417603 87.573 175.5713
668.224976 87.573 175.7240
673.067200 87.574 175.8783
677.944519 87.575 176.0340
682.857178 87.576 176.1904
687.805420 87.578 176.3489
692.789551 87.580 176.5155
697.809814 87.583 176.6799
702.866455 87.586 176.8509
707.959717 87.590 177.0243
713.089905 87.594 177.1971
718.257263 87.599 177.3689
723.462036 87.605 177.5504
728.704529 87.612 177.7289
733.985046 87.620 177.9077
739.303833 87.628 178.0927
744.661133 87.637 178.2776
750.057251 87.647 178.4606
755.492493 87.659 178.6451
760.967102 87.671 178.8269
766.481384 87.685 179.0075
772.035645 87.700 179.1833
777.630127 87.716 179.3557
783.265137 87.734 179.5148
788.940979 87.752 179.6660
794.657959 87.770 179.7942
800.416382 87.788 179.8998
806.216553 87.803 179.9863
812.058716 87.815 -179.9497
817.943237 87.819 -179.8895
823.870361 87.816 -179.8150
829.840454 87.806 -179.7000
835.853821 87.792 -179.5086
841.910767 87.779 -179.2301
848.011597 87.774 -178.8698
854.156616 87.779 -178.4677
860.346191 87.796 -178.0539
866.580627 87.824 -177.6581
872.860229 87.859 -177.2958
879.185364 87.899 -176.9771
885.556274 87.942 -176.6913
891.973389 87.987 -176.4447
898.437012 88.033 -176.2200
904.947449 88.078 -176.0233
911.505066 88.123 -175.8554
918.110229 88.168 -175.7031
924.763245 88.211 -175.5740
931.464478 88.252 -175.4549
938.214233 88.291 -175.3540
945.012939 88.328 -175.2616
951.860901 88.361 -175.1728
958.758484 88.391 -175.0674
965.706055 88.418 -174.9465
972.703979 88.444 -174.7920
979.752563 88.472 -174.6025
986.852234 88.502 -174.3876
994.003357 88.537 -174.1451
1001.206299 88.577 -173.8907
1008.461426 88.624 -173.6344
1015.769165 88.676 -173.3962
1023.129822 88.733 -173.1700
1030.543823 88.794 -172.9637
1038.011597 88.858 -172.7815
1045.533447 88.923 -172.6201
1053.109863 88.990 -172.4760
1060.741089 89.057 -172.3593
1068.427612 89.124 -172.2614
1076.169922 89.191 -172.1779
1083.968262 89.258 -172.1167
1091.823120 89.325 -172.0734
1099.734863 89.391 -172.0422
1107.703979 89.458 -172.0247
1115.730835 89.524 -172.0245
1123.815918 89.590 -172.0334
1131.959595 89.656 -172.0537
1140.162231 89.721 -172.0941
1148.424316 89.786 -172.1342
1156.746216 89.850 -172.1909
1165.128418 89.913 -172.2553
1173.571411 89.976 -172.3298
1182.075562 90.039 -172.4154
1190.641357 90.101 -172.5026
1199.269287 90.162 -172.6042
1207.959717 90.223 -172.7116
1216.713135 90.283 -172.8221
1225.529907 90.342 -172.9435
1234.410645 90.401 -173.0661
1243.355713 90.459 -173.1983
1252.365601 90.516 -173.3322
1261.440796 90.573 -173.4765
1270.581665 90.629 -173.6160
1279.788818 90.684 -173.7640
1289.062744 90.739 -173.9177
1298.403809 90.794 -174.0717
1307.812622 90.848 -174.2270
1317.289551 90.901 -174.3915
1326.835205 90.954 -174.5499
1336.449951 91.007 -174.7131
1346.134399 91.059 -174.8779
1355.889038 91.111 -175.0491
1365.714355 91.163 -175.2177
1375.610840 91.214 -175.3856
1385.579102 91.265 -175.5510
1395.619629 91.316 -175.7226
1405.732910 91.367 -175.8922
1415.919434 91.418 -176.0651
1426.179810 91.469 -176.2352
1436.514526 91.520 -176.4107
1446.924072 91.571 -176.5769
1457.409058 91.622 -176.7537
1467.970093 91.673 -176.9278
1478.607666 91.725 -177.1056
1489.322266 91.777 -177.2749
1500.114502 91.829 -177.4471
1510.984985 91.881 -177.6213
1521.934204 91.934 -177.8046
1532.962769 91.988 -177.9793
1544.071289 92.041 -178.1610
1555.260254 92.096 -178.3420
1566.530273 92.151 -178.5249
1577.881958 92.206 -178.7001
1589.315918 92.262 -178.8926
1600.832764 92.319 -179.0814
1612.433105 92.376 -179.2658
1624.117432 92.435 -179.4595
1635.886475 92.494 -179.6533
1647.740723 92.554 -179.8531
1659.680908 92.614 179.9493
1671.707642 92.676 179.7438
1683.821533 92.738 179.5331
1696.023193 92.801 179.3170
1708.313232 92.865 179.1068
1720.692383 92.930 178.8864
1733.161255 92.996 178.6629
1745.720459 93.063 178.4257
1758.370728 93.130 178.1886
1771.112549 93.199 177.9400
1783.946777 93.269 177.6965
1796.874023 93.339 177.4489
1809.894897 93.411 177.1749
1823.010132 93.483 176.9055
1836.220459 93.557 176.6307
1849.526489 93.632 176.3435
1862.928955 93.707 176.0546
1876.428467 93.784 175.7486
1890.025879 93.861 175.4405
1903.721802 93.940 175.1168
1917.516968 94.019 174.7878
1931.412109 94.099 174.4442
1945.407959 94.181 174.0957
1959.505127 94.263 173.7339
1973.704468 94.346 173.3616
1988.006714 94.430 172.9826
2002.412598 94.515 172.5860
2016.922852 94.601 172.1802
2031.538330 94.687 171.7584
2046.259644 94.774 171.3251
2061.087646 94.862 170.8786
2076.023193 94.951 170.4252
2091.066895 95.040 169.9464
2106.219727 95.130 169.4612
2121.482178 95.221 168.9515
2136.855225 95.312 168.4420
2152.339844 95.404 167.9157
2167.936523 95.498 167.3802
2183.646240 95.592 166.8018
2199.469727 95.687 166.2159
2215.407959 95.782 165.6048
2231.461670 95.877 164.9749
2247.631836 95.972 164.3293
2263.919189 96.067 163.6659
2280.324463 96.163 162.9870
2296.848633 96.258 162.2787
2313.492432 96.353 161.5449
2330.256836 96.448 160.7889
2347.142822 96.542 160.0128
2364.151123 96.636 159.2181
2381.282715 96.729 158.4031
2398.538574 96.822 157.5545
2415.919434 96.913 156.6863
2433.426270 97.004 155.7988
2451.059814 97.093 154.8859
2468.821289 97.180 153.9413
2486.711426 97.266 152.9811
2504.731201 97.349 151.9749
2522.881592 97.431 150.9509
2541.163330 97.510 149.9104
2559.577637 97.586 148.8509
2578.125488 97.660 147.7841
2596.807617 97.730 146.6458
2615.625244 97.798 145.5096
2634.579102 97.862 144.3488
2653.670410 97.922 143.1824
2672.899902 97.979 142.0002
2692.268799 98.031 140.7949
2711.778076 98.080 139.5569
2731.428711 98.124 138.3127
2751.221680 98.164 137.0627
2771.158203 98.200 135.8000
2791.239258 98.231 134.5169
2811.465820 98.258 133.2357
2831.838867 98.280 131.9508
2852.359619 98.298 130.6472
2873.029053 98.311 129.3511
2893.848145 98.319 128.0491
2914.818115 98.322 126.7316
2935.940186 98.321 125.4523
2957.215332 98.316 124.1433
2978.644531 98.306 122.8467
3000.229004 98.292 121.5515
3021.969971 98.274 120.2811
3043.868408 98.252 119.0058
3065.925537 98.225 117.7256
3088.142578 98.195 116.4732
3110.520508 98.161 115.2397
3133.060547 98.124 113.9997
3155.763916 98.083 112.7723
3178.631836 98.039 111.5767
3201.665527 97.993 110.3898
3224.866211 97.943 109.2136
3248.234863 97.891 108.0496
3271.772949 97.836 106.9041
3295.481445 97.779 105.7756
3319.361816 97.720 104.6642
3343.415283 97.658 103.5664
3367.643066 97.595 102.4849
3392.046387 97.531 101.4337
3416.626465 97.465 100.3898
3441.384766 97.397 99.3555
3466.322510 97.328 98.3588
3491.440918 97.259 97.3625
