* Measurement data measured by REW V5.31.3
* Source: Headset (CX31993 HIFI AUDIO), MICROPHONE (Master Volume), R, volume: 0.250
* Format: 256k Log Swept Sine, 1 sweep at -12.0 dBFS with no timing reference
* Dated: 01 24, 25 7:50:45 PM
* REW Settings:
*  C-weighting compensation: Off
*  Target level: 75.0 dB
* Note: ; 
* Measurement: KZ x AE Libra X L
* Smoothing: 1/12 octave
* Frequency Step: 96 ppo
* Start Frequency: 0.36621094 Hz
*
* Freq(Hz) SPL(dB) Phase(degrees)
0.366211 43.073 -66.7079
0.368865 43.092 -66.8346
0.371538 43.119 -67.0230
0.374230 43.153 -67.2570
0.376942 43.191 -67.5229
0.379673 43.232 -67.8106
0.382424 43.275 -68.1134
0.385196 43.319 -68.4271
0.387987 43.363 -68.7495
0.390798 43.408 -69.0791
0.393630 43.454 -69.4153
0.396483 43.500 -69.7576
0.399356 43.546 -70.1058
0.402250 43.593 -70.4597
0.405165 43.640 -70.8195
0.408101 43.687 -71.1848
0.411058 43.734 -71.5558
0.414037 43.782 -71.9324
0.417037 43.831 -72.3146
0.420059 43.879 -72.7022
0.423103 43.928 -73.0953
0.426169 43.978 -73.4938
0.429257 44.028 -73.8976
0.432368 44.078 -74.3068
0.435501 44.128 -74.7212
0.438656 44.179 -75.1407
0.441835 44.230 -75.5654
0.445037 44.282 -75.9951
0.448262 44.334 -76.4297
0.451510 44.386 -76.8693
0.454782 44.439 -77.3137
0.458077 44.492 -77.7627
0.461397 44.545 -78.2165
0.464740 44.599 -78.6748
0.468108 44.653 -79.1375
0.471500 44.708 -79.6046
0.474917 44.763 -80.0761
0.478358 44.818 -80.5517
0.481825 44.874 -81.0314
0.485316 44.930 -81.5151
0.488833 44.987 -82.0027
0.492375 45.044 -82.4941
0.495943 45.102 -82.9892
0.499537 45.159 -83.4879
0.503157 45.218 -83.9902
0.506803 45.276 -84.4958
0.510475 45.336 -85.0047
0.514175 45.395 -85.5168
0.517900 45.455 -86.0320
0.521653 45.516 -86.5502
0.525434 45.577 -87.0713
0.529241 45.638 -87.5952
0.533076 45.700 -88.1219
0.536939 45.762 -88.6511
0.540830 45.825 -89.1829
0.544749 45.888 -89.7171
0.548696 45.951 -90.2537
0.552673 46.015 -90.7925
0.556677 46.080 -91.3335
0.560711 46.145 -91.8767
0.564774 46.210 -92.4218
0.568867 46.276 -92.9690
0.572989 46.343 -93.5180
0.577141 46.409 -94.0688
0.581324 46.477 -94.6215
0.585536 46.545 -95.1758
0.589779 46.613 -95.7318
0.594053 46.682 -96.2894
0.598358 46.751 -96.8485
0.602694 46.821 -97.4092
0.607061 46.891 -97.9713
0.611460 46.962 -98.5349
0.615891 47.034 -99.0999
0.620354 47.106 -99.6664
0.624849 47.178 -100.2342
0.629377 47.251 -100.8033
0.633938 47.324 -101.3738
0.638532 47.398 -101.9457
0.643159 47.473 -102.5189
0.647819 47.548 -103.0935
0.652514 47.624 -103.6694
0.657242 47.700 -104.2467
0.662005 47.777 -104.8254
0.666802 47.854 -105.4055
0.671634 47.932 -105.9870
0.676501 48.010 -106.5700
0.681403 48.089 -107.1545
0.686341 48.169 -107.7405
0.691314 48.249 -108.3281
0.696324 48.330 -108.9173
0.701370 48.411 -109.5080
0.706452 48.493 -110.1004
0.711571 48.576 -110.6942
0.716728 48.660 -111.2894
0.721921 48.745 -111.8856
0.727153 48.832 -112.4824
0.732422 48.920 -113.0790
0.737729 49.009 -113.6747
0.743075 49.101 -114.2685
0.748460 49.194 -114.8597
0.753883 49.289 -115.4477
0.759346 49.385 -116.0320
0.764849 49.483 -116.6124
0.770391 49.582 -117.1886
0.775974 49.682 -117.7605
0.781597 49.783 -118.3280
0.787261 49.885 -118.8910
0.792966 49.989 -119.4496
0.798712 50.094 -120.0037
0.804500 50.200 -120.5533
0.810329 50.308 -121.0985
0.816201 50.416 -121.6393
0.822116 50.526 -122.1757
0.828073 50.636 -122.7078
0.834074 50.748 -123.2358
0.840118 50.861 -123.7596
0.846206 50.975 -124.2793
0.852338 51.090 -124.7952
0.858514 51.207 -125.3073
0.864735 51.324 -125.8157
0.871001 51.442 -126.3205
0.877313 51.561 -126.8220
0.883670 51.681 -127.3203
0.890074 51.803 -127.8154
0.896524 51.925 -128.3077
0.903020 52.048 -128.7972
0.909564 52.171 -129.2841
0.916155 52.296 -129.7687
0.922794 52.421 -130.2511
0.929481 52.548 -130.7314
0.936216 52.675 -131.2099
0.943000 52.802 -131.6869
0.949834 52.930 -132.1624
0.956717 53.059 -132.6367
0.963649 53.189 -133.1100
0.970632 53.319 -133.5825
0.977666 53.449 -134.0544
0.984750 53.580 -134.5259
0.991886 53.711 -134.9974
0.999074 53.843 -135.4689
1.006314 53.975 -135.9406
1.013606 54.107 -136.4129
1.020951 54.239 -136.8860
1.028349 54.371 -137.3600
1.035801 54.504 -137.8351
1.043307 54.636 -138.3117
1.050867 54.768 -138.7898
1.058482 54.900 -139.2696
1.066152 55.032 -139.7513
1.073878 55.164 -140.2348
1.081660 55.295 -140.7200
1.089498 55.426 -141.2065
1.097393 55.557 -141.6939
1.105345 55.688 -142.1815
1.113355 55.819 -142.6684
1.121423 55.950 -143.1541
1.129549 56.081 -143.6380
1.137734 56.213 -144.1198
1.145979 56.344 -144.5993
1.154283 56.476 -145.0765
1.162647 56.608 -145.5513
1.171072 56.740 -146.0238
1.179558 56.872 -146.4940
1.188106 57.005 -146.9619
1.196715 57.138 -147.4277
1.205387 57.271 -147.8915
1.214122 57.404 -148.3533
1.222920 57.537 -148.8132
1.231782 57.671 -149.2714
1.240708 57.805 -149.7280
1.249699 57.939 -150.1831
1.258754 58.073 -150.6369
1.267876 58.208 -151.0894
1.277063 58.342 -151.5408
1.286318 58.477 -151.9912
1.295639 58.612 -152.4408
1.305027 58.747 -152.8898
1.314484 58.883 -153.3382
1.324009 59.018 -153.7863
1.333604 59.154 -154.2341
1.343268 59.290 -154.6820
1.353002 59.426 -155.1299
1.362806 59.562 -155.5782
1.372681 59.699 -156.0268
1.382628 59.836 -156.4761
1.392647 59.972 -156.9262
1.402739 60.109 -157.3772
1.412904 60.247 -157.8291
1.423142 60.384 -158.2821
1.433455 60.521 -158.7362
1.443843 60.659 -159.1911
1.454305 60.797 -159.6465
1.464844 60.934 -160.1019
1.475459 61.072 -160.5568
1.486150 61.210 -161.0104
1.496920 61.347 -161.4623
1.507767 61.485 -161.9123
1.518693 61.622 -162.3603
1.529698 61.759 -162.8062
1.540783 61.896 -163.2503
1.551948 62.033 -163.6928
1.563194 62.170 -164.1339
1.574521 62.306 -164.5738
1.585931 62.443 -165.0129
1.597423 62.579 -165.4514
1.608999 62.715 -165.8897
1.620658 62.851 -166.3280
1.632402 62.987 -166.7667
1.644232 63.123 -167.2060
1.656146 63.259 -167.6463
1.668147 63.394 -168.0879
1.680235 63.530 -168.5311
1.692411 63.666 -168.9762
1.704675 63.801 -169.4236
1.717028 63.937 -169.8736
1.729470 64.072 -170.3265
1.742003 64.208 -170.7826
1.754626 64.343 -171.2423
1.767341 64.479 -171.7057
1.780147 64.615 -172.1731
1.793047 64.751 -172.6447
1.806040 64.886 -173.1205
1.819128 65.022 -173.6002
1.832310 65.158 -174.0837
1.845587 65.293 -174.5704
1.858961 65.429 -175.0598
1.872432 65.564 -175.5513
1.886001 65.698 -176.0445
1.899667 65.833 -176.5392
1.913433 65.967 -177.0351
1.927299 66.100 -177.5320
1.941265 66.234 -178.0299
1.955332 66.367 -178.5286
1.969501 66.499 -179.0282
1.983773 66.631 -179.5286
1.998148 66.764 179.9701
2.012627 66.895 179.4680
2.027212 67.027 178.9648
2.041902 67.158 178.4607
2.056698 67.289 177.9554
2.071602 67.420 177.4490
2.086614 67.551 176.9411
2.101734 67.681 176.4317
2.116964 67.811 175.9206
2.132304 67.942 175.4076
2.147756 68.072 174.8925
2.163320 68.202 174.3752
2.178996 68.331 173.8554
2.194786 68.461 173.3332
2.210690 68.590 172.8084
2.226710 68.719 172.2812
2.242845 68.847 171.7515
2.259098 68.975 171.2198
2.275468 69.103 170.6860
2.291957 69.229 170.1505
2.308566 69.356 169.6135
2.325295 69.482 169.0751
2.342145 69.607 168.5356
2.359117 69.732 167.9950
2.376212 69.857 167.4534
2.393431 69.981 166.9111
2.410775 70.105 166.3679
2.428244 70.228 165.8240
2.445840 70.351 165.2794
2.463564 70.474 164.7340
2.481416 70.596 164.1878
2.499397 70.718 163.6406
2.517509 70.840 163.0922
2.535752 70.962 162.5425
2.554127 71.083 161.9911
2.572635 71.203 161.4377
2.591277 71.324 160.8821
2.610055 71.443 160.3241
2.628968 71.562 159.7637
2.648019 71.681 159.2011
2.667208 71.799 158.6365
2.686535 71.916 158.0702
2.706003 72.033 157.5024
2.725612 72.149 156.9334
2.745363 72.264 156.3636
2.765257 72.379 155.7930
2.785295 72.494 155.2221
2.805478 72.608 154.6509
2.825808 72.721 154.0795
2.846285 72.835 153.5081
2.866910 72.947 152.9366
2.887685 73.060 152.3649
2.908611 73.172 151.7926
2.929688 73.283 151.2194
2.950917 73.394 150.6448
2.972301 73.505 150.0685
2.993839 73.615 149.4903
3.015534 73.724 148.9101
3.037386 73.832 148.3282
3.059396 73.940 147.7448
3.081565 74.047 147.1603
3.103896 74.153 146.5750
3.126388 74.259 145.9894
3.149043 74.364 145.4037
3.171862 74.469 144.8184
3.194847 74.574 144.2337
3.217998 74.678 143.6497
3.241317 74.781 143.0665
3.264805 74.884 142.4839
3.288463 74.987 141.9016
3.312293 75.089 141.3192
3.336295 75.190 140.7363
3.360471 75.291 140.1525
3.384822 75.391 139.5677
3.409350 75.490 138.9820
3.434056 75.589 138.3956
3.458940 75.687 137.8087
3.484005 75.785 137.2217
3.509252 75.882 136.6349
3.534681 75.978 136.0487
3.560295 76.074 135.4633
3.586094 76.170 134.8789
3.612081 76.265 134.2956
3.638255 76.360 133.7132
3.664620 76.454 133.1313
3.691175 76.548 132.5498
3.717923 76.641 131.9681
3.744864 76.734 131.3861
3.772001 76.826 130.8037
3.799335 76.917 130.2210
3.826866 77.008 129.6383
3.854597 77.098 129.0558
3.882529 77.188 128.4739
3.910664 77.277 127.8928
3.939002 77.366 127.3126
3.967546 77.454 126.7336
3.996296 77.542 126.1557
4.025255 77.630 125.5787
4.054423 77.717 125.0024
4.083804 77.804 124.4265
4.113396 77.890 123.8506
4.143204 77.976 123.2749
4.173227 78.061 122.6992
4.203468 78.146 122.1238
4.233928 78.230 121.5488
4.264609 78.313 120.9744
4.295512 78.397 120.4008
4.326639 78.480 119.8279
4.357992 78.562 119.2560
4.389572 78.644 118.6847
4.421380 78.726 118.1138
4.453419 78.807 117.5433
4.485691 78.888 116.9728
4.518196 78.968 116.4023
4.550936 79.048 115.8320
4.583914 79.127 115.2619
4.617131 79.206 114.6921
4.650589 79.284 114.1229
4.684289 79.362 113.5544
4.718233 79.440 112.9864
4.752424 79.517 112.4189
4.786862 79.594 111.8518
4.821549 79.670 111.2849
4.856488 79.746 110.7179
4.891680 79.821 110.1509
4.927127 79.896 109.5841
4.962831 79.970 109.0174
4.998794 80.044 108.4512
5.035017 80.117 107.8854
5.071503 80.190 107.3203
5.108253 80.262 106.7556
5.145270 80.334 106.1913
5.182555 80.406 105.6273
5.220110 80.477 105.0633
5.257937 80.547 104.4994
5.296038 80.617 103.9357
5.334415 80.686 103.3723
5.373071 80.755 102.8094
5.412006 80.823 102.2473
5.451224 80.891 101.6859
5.490725 80.958 101.1252
5.530514 81.025 100.5651
5.570590 81.091 100.0054
5.610957 81.157 99.4460
5.651616 81.222 98.8872
5.692570 81.286 98.3289
5.733821 81.350 97.7714
5.775370 81.414 97.2148
5.817221 81.477 96.6593
5.859375 81.539 96.1048
5.901834 81.601 95.5513
5.944602 81.663 94.9985
5.987679 81.723 94.4466
6.031068 81.784 93.8954
6.074771 81.843 93.3452
6.118792 81.903 92.7961
6.163131 81.961 92.2483
6.207792 82.020 91.7016
6.252776 82.077 91.1561
6.298086 82.135 90.6118
6.343725 82.191 90.0684
6.389694 82.248 89.5261
6.435996 82.303 88.9848
6.482634 82.359 88.4447
6.529610 82.414 87.9058
6.576926 82.468 87.3682
6.624585 82.522 86.8317
6.672590 82.575 86.2963
6.720942 82.628 85.7620
6.769645 82.681 85.2287
6.818700 82.733 84.6964
6.868111 82.784 84.1652
6.917881 82.835 83.6351
6.968010 82.886 83.1060
7.018504 82.936 82.5779
7.069362 82.986 82.0507
7.120590 83.035 81.5245
7.172189 83.084 80.9991
7.224161 83.132 80.4747
7.276511 83.180 79.9513
7.329239 83.227 79.4287
7.382350 83.274 78.9071
7.435845 83.321 78.3864
7.489729 83.367 77.8664
7.544002 83.412 77.3474
7.598669 83.457 76.8292
7.653732 83.502 76.3121
7.709194 83.546 75.7959
7.765058 83.589 75.2806
7.821327 83.632 74.7663
7.878004 83.675 74.2529
7.935091 83.717 73.7405
7.992592 83.758 73.2292
8.050510 83.799 72.7191
8.108847 83.840 72.2101
8.167607 83.880 71.7021
8.226793 83.920 71.1953
8.286408 83.959 70.6897
8.346454 83.997 70.1853
8.406936 84.035 69.6822
8.467856 84.073 69.1803
8.529218 84.110 68.6797
8.591024 84.147 68.1804
8.653278 84.183 67.6823
8.715983 84.219 67.1855
8.779143 84.254 66.6900
8.842760 84.289 66.1958
8.906839 84.324 65.7029
8.971381 84.358 65.2112
9.036392 84.391 64.7208
9.101873 84.425 64.2316
9.167829 84.458 63.7436
9.234263 84.490 63.2567
9.301178 84.522 62.7711
9.368578 84.554 62.2865
9.436467 84.585 61.8030
9.504847 84.616 61.3206
9.573723 84.646 60.8393
9.643099 84.676 60.3590
9.712976 84.706 59.8797
9.783361 84.735 59.4014
9.854255 84.764 58.9241
9.925663 84.793 58.4478
9.997588 84.821 57.9724
10.070035 84.848 57.4980
10.143007 84.876 57.0246
10.216507 84.903 56.5522
10.290540 84.929 56.0807
10.365109 84.955 55.6103
10.440219 84.981 55.1408
10.515873 85.007 54.6724
10.592076 85.032 54.2050
10.668830 85.056 53.7387
10.746141 85.081 53.2735
10.824012 85.104 52.8093
10.902447 85.128 52.3463
10.981451 85.151 51.8844
11.061027 85.174 51.4237
11.141180 85.196 50.9641
11.221913 85.218 50.5058
11.303232 85.240 50.0486
11.385140 85.262 49.5927
11.467641 85.283 49.1380
11.550741 85.303 48.6846
11.634442 85.324 48.2325
11.718750 85.344 47.7816
11.803669 85.364 47.3321
11.889203 85.383 46.8839
11.975357 85.402 46.4369
12.062136 85.421 45.9913
12.149543 85.439 45.5470
12.237583 85.458 45.1041
12.326262 85.476 44.6624
12.415583 85.493 44.2221
12.505552 85.510 43.7831
12.596172 85.528 43.3455
12.687449 85.544 42.9092
12.779387 85.561 42.4742
12.871992 85.577 42.0406
12.965268 85.593 41.6083
13.059220 85.608 41.1774
13.153852 85.624 40.7478
13.249170 85.639 40.3197
13.345179 85.653 39.8929
13.441884 85.668 39.4676
13.539289 85.682 39.0437
13.637401 85.696 38.6212
13.736223 85.709 38.2002
13.835761 85.722 37.7806
13.936021 85.735 37.3624
14.037007 85.748 36.9457
14.138725 85.760 36.5303
14.241180 85.772 36.1162
14.344377 85.784 35.7036
14.448323 85.795 35.2922
14.553021 85.806 34.8822
14.658478 85.817 34.4734
14.764700 85.827 34.0662
14.871691 85.837 33.6603
14.979457 85.846 33.2560
15.088005 85.855 32.8534
15.197339 85.863 32.4527
15.307465 85.871 32.0540
15.418389 85.879 31.6575
15.530117 85.886 31.2633
15.642655 85.893 30.8718
15.756008 85.899 30.4828
15.870182 85.905 30.0966
15.985184 85.911 29.7131
16.101019 85.917 29.3321
16.217694 85.922 28.9535
16.335214 85.927 28.5769
16.453586 85.932 28.2020
16.572815 85.937 27.8283
16.692909 85.942 27.4553
16.813872 85.947 27.0826
16.935713 85.951 26.7099
17.058436 85.955 26.3367
17.182048 85.959 25.9630
17.306556 85.963 25.5886
17.431967 85.966 25.2140
17.558286 85.968 24.8393
17.685521 85.969 24.4651
17.813677 85.970 24.0922
17.942762 85.971 23.7209
18.072783 85.970 23.3521
18.203746 85.969 22.9862
18.335658 85.968 22.6234
18.468526 85.967 22.2639
18.602356 85.965 21.9075
18.737156 85.964 21.5535
18.872934 85.962 21.2012
19.009695 85.961 20.8499
19.147447 85.960 20.4985
19.286197 85.959 20.1464
19.425953 85.958 19.7928
19.566721 85.956 19.4376
19.708510 85.955 19.0811
19.851326 85.953 18.7238
19.995177 85.950 18.3665
20.140070 85.947 18.0106
20.286013 85.943 17.6572
20.433014 85.939 17.3074
20.581080 85.935 16.9618
20.730219 85.931 16.6205
20.880439 85.927 16.2830
21.031747 85.923 15.9479
21.184152 85.921 15.6137
21.337661 85.919 15.2784
21.492282 85.917 14.9404
21.648024 85.916 14.5984
21.804895 85.914 14.2522
21.962902 85.912 13.9030
22.122054 85.908 13.5529
22.282360 85.903 13.2054
22.443827 85.897 12.8652
22.606464 85.889 12.5363
22.770280 85.880 12.2226
22.935283 85.872 11.9264
23.101481 85.865 11.6477
23.268884 85.861 11.3837
23.437500 85.860 11.1287
23.607338 85.863 10.8745
23.778406 85.870 10.6114
23.950714 85.880 10.3294
24.124271 85.893 10.0200
24.299086 85.906 9.6772
24.475167 85.918 9.2996
24.652524 85.926 8.8900
24.831166 85.929 8.4559
25.011103 85.925 8.0090
25.192344 85.914 7.5632
25.374898 85.895 7.1332
25.558775 85.869 6.7325
25.743984 85.840 6.3715
25.930536 85.808 6.0558
26.118439 85.776 5.7856
26.307704 85.747 5.5554
26.498341 85.721 5.3552
26.690359 85.701 5.1725
26.883768 85.685 4.9938
27.078579 85.673 4.8078
27.274801 85.664 4.6066
27.472446 85.656 4.3864
27.671522 85.648 4.1479
27.872042 85.638 3.8951
28.074014 85.626 3.6339
28.277450 85.613 3.3702
28.482360 85.598 3.1086
28.688755 85.581 2.8516
28.896645 85.565 2.5994
29.106042 85.549 2.3497
29.316957 85.533 2.1000
29.529400 85.518 1.8469
29.743382 85.503 1.5889
29.958915 85.487 1.3253
30.176009 85.471 1.0575
30.394677 85.454 0.7874
30.614929 85.436 0.5178
30.836778 85.418 0.2507
31.060234 85.399 -0.0126
31.285309 85.380 -0.2721
31.512015 85.361 -0.5288
31.740364 85.344 -0.7842
31.970368 85.326 -1.0398
32.202039 85.309 -1.2965
32.435388 85.292 -1.5547
32.670428 85.275 -1.8140
32.907171 85.258 -2.0734
33.145630 85.240 -2.3317
33.385817 85.223 -2.5878
33.627745 85.204 -2.8406
33.871425 85.186 -3.0894
34.116871 85.167 -3.3336
34.364096 85.149 -3.5730
34.613113 85.130 -3.8076
34.863934 85.112 -4.0377
35.116572 85.093 -4.2639
35.371041 85.075 -4.4872
35.627354 85.057 -4.7086
35.885525 85.040 -4.9292
36.145566 85.022 -5.1497
36.407492 85.004 -5.3704
36.671316 84.986 -5.5914
36.937051 84.967 -5.8125
37.204712 84.948 -6.0331
37.474313 84.928 -6.2529
37.745867 84.908 -6.4718
38.019389 84.887 -6.6902
38.294893 84.866 -6.9081
38.572394 84.845 -7.1261
38.851905 84.823 -7.3442
39.133442 84.801 -7.5623
39.417019 84.778 -7.7797
39.702651 84.755 -7.9958
39.990353 84.731 -8.2097
40.280140 84.707 -8.4209
40.572026 84.683 -8.6292
40.866028 84.659 -8.8346
41.162160 84.636 -9.0380
41.460438 84.612 -9.2401
41.760877 84.589 -9.4417
42.063494 84.565 -9.6429
42.368303 84.542 -9.8439
42.675322 84.519 -10.0437
42.984565 84.495 -10.2417
43.296048 84.471 -10.4374
43.609789 84.447 -10.6304
43.925804 84.424 -10.8208
44.244108 84.400 -11.0085
44.564719 84.376 -11.1941
44.887654 84.352 -11.3774
45.212928 84.329 -11.5587
45.540560 84.305 -11.7382
45.870565 84.281 -11.9163
46.202962 84.257 -12.0936
46.537768 84.233 -12.2703
46.875000 84.208 -12.4457
47.214676 84.183 -12.6188
47.556813 84.158 -12.7885
47.901429 84.132 -12.9539
48.248542 84.106 -13.1154
48.598171 84.080 -13.2736
48.950334 84.054 -13.4292
49.305048 84.028 -13.5814
49.662333 84.002 -13.7288
50.022206 83.976 -13.8700
50.384688 83.950 -14.0057
50.749796 83.926 -14.1398
51.117550 83.903 -14.2785
51.487969 83.880 -14.4282
51.861072 83.857 -14.5912
52.236879 83.832 -14.7645
52.615409 83.804 -14.9402
52.996681 83.773 -15.1091
53.380717 83.741 -15.2653
53.767536 83.708 -15.4077
54.157158 83.676 -15.5406
54.549603 83.644 -15.6699
54.944892 83.614 -15.8004
55.343045 83.583 -15.9336
55.744084 83.553 -16.0691
56.148028 83.522 -16.2055
56.554900 83.491 -16.3420
56.964720 83.461 -16.4788
57.377510 83.430 -16.6154
57.793291 83.399 -16.7507
58.212085 83.368 -16.8824
58.633914 83.337 -17.0081
59.058799 83.307 -17.1267
59.486764 83.277 -17.2397
59.917829 83.249 -17.3505
60.352019 83.221 -17.4626
60.789354 83.194 -17.5785
61.229859 83.167 -17.6976
61.673556 83.139 -17.8173
62.120468 83.109 -17.9340
62.570618 83.079 -18.0452
63.024031 83.049 -18.1506
63.480729 83.018 -18.2515
63.940736 82.987 -18.3496
64.404077 82.956 -18.4463
64.870776 82.925 -18.5421
65.340856 82.893 -18.6373
65.814343 82.862 -18.7321
66.291261 82.831 -18.8275
66.771635 82.800 -18.9247
67.255489 82.769 -19.0249
67.742850 82.738 -19.1285
68.233743 82.708 -19.2354
68.728193 82.677 -19.3450
69.226226 82.646 -19.4574
69.727867 82.614 -19.5717
70.233144 82.581 -19.6835
70.742083 82.546 -19.7852
71.254709 82.510 -19.8681
71.771050 82.474 -19.9279
72.291132 82.440 -19.9676
72.814984 82.408 -19.9962
73.342631 82.379 -20.0244
73.874102 82.352 -20.0600
74.409424 82.325 -20.1068
74.948626 82.298 -20.1646
75.491734 82.270 -20.2305
76.038779 82.241 -20.3001
76.589787 82.210 -20.3690
77.144788 82.178 -20.4348
77.703811 82.146 -20.4971
78.266885 82.114 -20.5574
78.834039 82.083 -20.6172
79.405303 82.051 -20.6779
79.980706 82.019 -20.7394
80.560280 81.988 -20.8014
81.144053 81.956 -20.8628
81.732056 81.923 -20.9215
82.324320 81.890 -20.9751
82.920876 81.857 -21.0219
83.521755 81.824 -21.0623
84.126988 81.792 -21.0983
84.736607 81.759 -21.1324
85.350643 81.727 -21.1659
85.969129 81.695 -21.1984
86.592097 81.663 -21.2292
87.219579 81.631 -21.2581
87.851608 81.598 -21.2844
88.488217 81.565 -21.3078
89.129439 81.532 -21.3281
89.775308 81.498 -21.3460
90.425856 81.465 -21.3634
91.081119 81.432 -21.3818
91.741131 81.399 -21.4019
92.405925 81.366 -21.4227
93.075536 81.333 -21.4434
93.750000 81.301 -21.4631
94.429351 81.269 -21.4819
95.113625 81.238 -21.4998
95.802858 81.208 -21.5162
96.497085 81.178 -21.5316
97.196342 81.150 -21.5468
