* Measurement data measured by REW V5.31.3
* Source: Headset (2- CX31993 HIFI AUDIO), MICROPHONE (Master Volume), R, volume: 0.400
* Format: 256k Log Swept Sine, 1 sweep at -12.0 dBFS with no timing reference
* Dated: 09 25, 24 4:08:04 PM
* REW Settings:
*  C-weighting compensation: Off
*  Target level: 75.0 dB
* Note: ; 
* Measurement: MAY2DUSK R
* Smoothing: 1/12 octave
* Frequency Step: 96 ppo
* Start Frequency: 0.36621094 Hz
*
* Freq(Hz) SPL(dB) Phase(degrees)
0.366211 51.863 27.0020
0.368865 51.892 27.0147
0.371538 51.934 27.0340
0.374230 51.986 27.0587
0.376942 52.044 27.0878
0.379673 52.107 27.1207
0.382424 52.172 27.1568
0.385196 52.239 27.1958
0.387987 52.307 27.2375
0.390798 52.375 27.2817
0.393630 52.445 27.3283
0.396483 52.515 27.3772
0.399356 52.585 27.4284
0.402250 52.656 27.4818
0.405165 52.728 27.5372
0.408101 52.800 27.5947
0.411058 52.873 27.6540
0.414037 52.946 27.7153
0.417037 53.020 27.7783
0.420059 53.094 27.8430
0.423103 53.169 27.9093
0.426169 53.244 27.9771
0.429257 53.320 28.0463
0.432368 53.396 28.1169
0.435501 53.473 28.1887
0.438656 53.551 28.2616
0.441835 53.629 28.3355
0.445037 53.708 28.4104
0.448262 53.787 28.4861
0.451510 53.867 28.5625
0.454782 53.947 28.6395
0.458077 54.028 28.7171
0.461397 54.110 28.7950
0.464740 54.192 28.8733
0.468108 54.274 28.9517
0.471500 54.358 29.0301
0.474917 54.442 29.1085
0.478358 54.526 29.1868
0.481825 54.611 29.2647
0.485316 54.697 29.3423
0.488833 54.784 29.4193
0.492375 54.871 29.4956
0.495943 54.958 29.5712
0.499537 55.047 29.6459
0.503157 55.136 29.7196
0.506803 55.225 29.7921
0.510475 55.315 29.8634
0.514175 55.406 29.9333
0.517900 55.498 30.0017
0.521653 55.590 30.0684
0.525434 55.683 30.1334
0.529241 55.777 30.1966
0.533076 55.871 30.2577
0.536939 55.966 30.3167
0.540830 56.061 30.3734
0.544749 56.158 30.4278
0.548696 56.255 30.4797
0.552673 56.353 30.5289
0.556677 56.451 30.5755
0.560711 56.550 30.6192
0.564774 56.650 30.6599
0.568867 56.751 30.6976
0.572989 56.852 30.7321
0.577141 56.954 30.7632
0.581324 57.057 30.7910
0.585536 57.160 30.8152
0.589779 57.264 30.8358
0.594053 57.370 30.8527
0.598358 57.475 30.8657
0.602694 57.582 30.8748
0.607061 57.689 30.8798
0.611460 57.797 30.8807
0.615891 57.906 30.8774
0.620354 58.016 30.8697
0.624849 58.127 30.8576
0.629377 58.238 30.8410
0.633938 58.350 30.8198
0.638532 58.463 30.7940
0.643159 58.577 30.7634
0.647819 58.691 30.7279
0.652514 58.807 30.6876
0.657242 58.923 30.6423
0.662005 59.040 30.5920
0.666802 59.158 30.5365
0.671634 59.277 30.4759
0.676501 59.396 30.4101
0.681403 59.517 30.3390
0.686341 59.638 30.2625
0.691314 59.760 30.1808
0.696324 59.883 30.0937
0.701370 60.007 30.0013
0.706452 60.132 29.9037
0.711571 60.257 29.8011
0.716728 60.382 29.6939
0.721921 60.507 29.5827
0.727153 60.632 29.4683
0.732422 60.757 29.3521
0.737729 60.880 29.2353
0.743075 61.003 29.1193
0.748460 61.125 29.0051
0.753883 61.247 28.8934
0.759346 61.370 28.7844
0.764849 61.493 28.6783
0.770391 61.616 28.5749
0.775974 61.740 28.4741
0.781597 61.864 28.3756
0.787261 61.989 28.2792
0.792966 62.114 28.1844
0.798712 62.240 28.0911
0.804500 62.367 27.9990
0.810329 62.494 27.9077
0.816201 62.622 27.8169
0.822116 62.750 27.7264
0.828073 62.879 27.6358
0.834074 63.009 27.5450
0.840118 63.138 27.4535
0.846206 63.269 27.3612
0.852338 63.400 27.2678
0.858514 63.532 27.1729
0.864735 63.664 27.0765
0.871001 63.796 26.9781
0.877313 63.929 26.8775
0.883670 64.063 26.7746
0.890074 64.197 26.6690
0.896524 64.332 26.5605
0.903020 64.467 26.4489
0.909564 64.602 26.3339
0.916155 64.738 26.2154
0.922794 64.875 26.0931
0.929481 65.011 25.9668
0.936216 65.149 25.8363
0.943000 65.287 25.7013
0.949834 65.425 25.5618
0.956717 65.563 25.4174
0.963649 65.702 25.2679
0.970632 65.842 25.1133
0.977666 65.981 24.9532
0.984750 66.121 24.7876
0.991886 66.262 24.6162
0.999074 66.403 24.4388
1.006314 66.544 24.2553
1.013606 66.685 24.0655
1.020951 66.827 23.8692
1.028349 66.969 23.6663
1.035801 67.111 23.4567
1.043307 67.253 23.2402
1.050867 67.396 23.0167
1.058482 67.539 22.7862
1.066152 67.682 22.5488
1.073878 67.825 22.3047
1.081660 67.968 22.0544
1.089498 68.112 21.7987
1.097393 68.256 21.5386
1.105345 68.399 21.2754
1.113355 68.543 21.0105
1.121423 68.687 20.7450
1.129549 68.831 20.4796
1.137734 68.975 20.2148
1.145979 69.119 19.9508
1.154283 69.263 19.6875
1.162647 69.407 19.4249
1.171072 69.551 19.1628
1.179558 69.695 18.9010
1.188106 69.839 18.6393
1.196715 69.983 18.3775
1.205387 70.127 18.1153
1.214122 70.271 17.8525
1.222920 70.416 17.5889
1.231782 70.560 17.3242
1.240708 70.704 17.0583
1.249699 70.849 16.7908
1.258754 70.993 16.5215
1.267876 71.138 16.2502
1.277063 71.282 15.9766
1.286318 71.427 15.7006
1.295639 71.571 15.4219
1.305027 71.716 15.1402
1.314484 71.861 14.8553
1.324009 72.006 14.5669
1.333604 72.151 14.2749
1.343268 72.296 13.9790
1.353002 72.441 13.6790
1.362806 72.586 13.3746
1.372681 72.732 13.0655
1.382628 72.877 12.7516
1.392647 73.023 12.4327
1.402739 73.169 12.1086
1.412904 73.315 11.7791
1.423142 73.461 11.4443
1.433455 73.607 11.1042
1.443843 73.754 10.7590
1.454305 73.900 10.4095
1.464844 74.047 10.0564
1.475459 74.193 9.7007
1.486150 74.340 9.3435
1.496920 74.486 8.9855
1.507767 74.631 8.6272
1.518693 74.777 8.2690
1.529698 74.922 7.9107
1.540783 75.067 7.5524
1.551948 75.212 7.1937
1.563194 75.356 6.8346
1.574521 75.500 6.4746
1.585931 75.644 6.1135
1.597423 75.788 5.7510
1.608999 75.931 5.3867
1.620658 76.074 5.0204
1.632402 76.217 4.6517
1.644232 76.359 4.2803
1.656146 76.502 3.9058
1.668147 76.644 3.5280
1.680235 76.786 3.1464
1.692411 76.927 2.7608
1.704675 77.069 2.3707
1.717028 77.211 1.9759
1.729470 77.352 1.5760
1.742003 77.493 1.1706
1.754626 77.635 0.7595
1.767341 77.776 0.3423
1.780147 77.917 -0.0811
1.793047 78.058 -0.5110
1.806040 78.199 -0.9473
1.819128 78.340 -1.3899
1.832310 78.480 -1.8383
1.845587 78.621 -2.2919
1.858961 78.761 -2.7501
1.872432 78.900 -3.2123
1.886001 79.039 -3.6779
1.899667 79.178 -4.1465
1.913433 79.316 -4.6178
1.927299 79.453 -5.0916
1.941265 79.590 -5.5677
1.955332 79.726 -6.0460
1.969501 79.862 -6.5264
1.983773 79.997 -7.0088
1.998148 80.132 -7.4933
2.012627 80.267 -7.9798
2.027212 80.401 -8.4684
2.041902 80.534 -8.9591
2.056698 80.668 -9.4521
2.071602 80.800 -9.9474
2.086614 80.933 -10.4453
2.101734 81.065 -10.9457
2.116964 81.197 -11.4491
2.132304 81.329 -11.9555
2.147756 81.460 -12.4653
2.163320 81.591 -12.9786
2.178996 81.722 -13.4958
2.194786 81.852 -14.0170
2.210690 81.982 -14.5424
2.226710 82.111 -15.0720
2.242845 82.240 -15.6056
2.259098 82.367 -16.1431
2.275468 82.495 -16.6842
2.291957 82.621 -17.2285
2.308566 82.747 -17.7756
2.325295 82.872 -18.3253
2.342145 82.996 -18.8771
2.359117 83.120 -19.4308
2.376212 83.243 -19.9862
2.393431 83.365 -20.5431
2.410775 83.487 -21.1012
2.428244 83.608 -21.6604
2.445840 83.729 -22.2206
2.463564 83.849 -22.7818
2.481416 83.969 -23.3440
2.499397 84.088 -23.9074
2.517509 84.207 -24.4720
2.535752 84.325 -25.0384
2.554127 84.443 -25.6069
2.572635 84.560 -26.1781
2.591277 84.676 -26.7526
2.610055 84.792 -27.3306
2.628968 84.907 -27.9123
2.648019 85.020 -28.4974
2.667208 85.133 -29.0856
2.686535 85.246 -29.6765
2.706003 85.357 -30.2695
2.725612 85.468 -30.8643
2.745363 85.577 -31.4603
2.765257 85.686 -32.0570
2.785295 85.795 -32.6540
2.805478 85.902 -33.2509
2.825808 86.009 -33.8475
2.846285 86.116 -34.4435
2.866910 86.222 -35.0389
2.887685 86.327 -35.6337
2.908611 86.432 -36.2285
2.929688 86.536 -36.8238
2.950917 86.639 -37.4204
2.972301 86.742 -38.0188
2.993839 86.843 -38.6195
3.015534 86.944 -39.2226
3.037386 87.043 -39.8277
3.059396 87.142 -40.4347
3.081565 87.240 -41.0428
3.103896 87.337 -41.6517
3.126388 87.434 -42.2606
3.149043 87.529 -42.8690
3.171862 87.624 -43.4764
3.194847 87.718 -44.0823
3.217998 87.812 -44.6863
3.241317 87.905 -45.2885
3.264805 87.998 -45.8887
3.288463 88.090 -46.4875
3.312293 88.181 -47.0855
3.336295 88.271 -47.6833
3.360471 88.361 -48.2815
3.384822 88.450 -48.8802
3.409350 88.538 -49.4796
3.434056 88.625 -50.0792
3.458940 88.711 -50.6788
3.484005 88.797 -51.2778
3.509252 88.882 -51.8758
3.534681 88.966 -52.4723
3.560295 89.050 -53.0668
3.586094 89.133 -53.6590
3.612081 89.216 -54.2488
3.638255 89.298 -54.8361
3.664620 89.380 -55.4214
3.691175 89.461 -56.0050
3.717923 89.541 -56.5874
3.744864 89.621 -57.1691
3.772001 89.700 -57.7500
3.799335 89.779 -58.3303
3.826866 89.857 -58.9097
3.854597 89.934 -59.4880
3.882529 90.011 -60.0648
3.910664 90.087 -60.6399
3.939002 90.163 -61.2130
3.967546 90.239 -61.7839
3.996296 90.314 -62.3526
4.025255 90.389 -62.9192
4.054423 90.463 -63.4839
4.083804 90.537 -64.0471
4.113396 90.611 -64.6090
4.143204 90.684 -65.1698
4.173227 90.757 -65.7295
4.203468 90.829 -66.2882
4.233928 90.901 -66.8459
4.264609 90.972 -67.4024
4.295512 91.044 -67.9576
4.326639 91.114 -68.5116
4.357992 91.185 -69.0643
4.389572 91.255 -69.6159
4.421380 91.325 -70.1665
4.453419 91.395 -70.7163
4.485691 91.464 -71.2655
4.518196 91.533 -71.8141
4.550936 91.602 -72.3623
4.583914 91.670 -72.9100
4.617131 91.738 -73.4573
4.650589 91.806 -74.0042
4.684289 91.873 -74.5506
4.718233 91.940 -75.0968
4.752424 92.007 -75.6427
4.786862 92.073 -76.1886
4.821549 92.139 -76.7346
4.856488 92.205 -77.2809
4.891680 92.270 -77.8273
4.927127 92.335 -78.3740
4.962831 92.399 -78.9208
4.998794 92.463 -79.4676
5.035017 92.527 -80.0144
5.071503 92.590 -80.5613
5.108253 92.653 -81.1082
5.145270 92.715 -81.6554
5.182555 92.776 -82.2031
5.220110 92.838 -82.7513
5.257937 92.898 -83.3000
5.296038 92.958 -83.8489
5.334415 93.018 -84.3980
5.373071 93.077 -84.9469
5.412006 93.135 -85.4954
5.451224 93.193 -86.0436
5.490725 93.251 -86.5915
5.530514 93.307 -87.1391
5.570590 93.363 -87.6866
5.610957 93.419 -88.2340
5.651616 93.473 -88.7811
5.692570 93.528 -89.3278
5.733821 93.581 -89.8735
5.775370 93.634 -90.4182
5.817221 93.686 -90.9615
5.859375 93.738 -91.5034
5.901834 93.789 -92.0441
5.944602 93.839 -92.5835
5.987679 93.889 -93.1217
6.031068 93.938 -93.6586
6.074771 93.987 -94.1940
6.118792 94.035 -94.7275
6.163131 94.082 -95.2590
6.207792 94.129 -95.7883
6.252776 94.176 -96.3154
6.298086 94.222 -96.8404
6.343725 94.267 -97.3634
6.389694 94.312 -97.8843
6.435996 94.356 -98.4032
6.482634 94.400 -98.9199
6.529610 94.444 -99.4343
6.576926 94.487 -99.9464
6.624585 94.530 -100.4562
6.672590 94.573 -100.9638
6.720942 94.615 -101.4692
6.769645 94.657 -101.9727
6.818700 94.698 -102.4743
6.868111 94.740 -102.9739
6.917881 94.781 -103.4719
6.968010 94.821 -103.9680
7.018504 94.862 -104.4626
7.069362 94.902 -104.9556
7.120590 94.942 -105.4473
7.172189 94.982 -105.9376
7.224161 95.021 -106.4268
7.276511 95.061 -106.9150
7.329239 95.100 -107.4023
7.382350 95.139 -107.8887
7.435845 95.177 -108.3744
7.489729 95.215 -108.8594
7.544002 95.253 -109.3437
7.598669 95.291 -109.8275
7.653732 95.328 -110.3108
7.709194 95.365 -110.7937
7.765058 95.402 -111.2761
7.821327 95.438 -111.7581
7.878004 95.474 -112.2397
7.935091 95.510 -112.7208
7.992592 95.545 -113.2013
8.050510 95.579 -113.6812
8.108847 95.614 -114.1604
8.167607 95.647 -114.6390
8.226793 95.681 -115.1169
8.286408 95.714 -115.5939
8.346454 95.746 -116.0698
8.406936 95.778 -116.5446
8.467856 95.810 -117.0182
8.529218 95.841 -117.4906
8.591024 95.871 -117.9616
8.653278 95.902 -118.4311
8.715983 95.931 -118.8991
8.779143 95.961 -119.3654
8.842760 95.990 -119.8299
8.906839 96.018 -120.2927
8.971381 96.046 -120.7537
9.036392 96.074 -121.2128
9.101873 96.102 -121.6700
9.167829 96.129 -122.1254
9.234263 96.155 -122.5788
9.301178 96.182 -123.0304
9.368578 96.208 -123.4801
9.436467 96.234 -123.9280
9.504847 96.260 -124.3742
9.573723 96.285 -124.8186
9.643099 96.310 -125.2614
9.712976 96.335 -125.7026
9.783361 96.360 -126.1424
9.854255 96.384 -126.5806
9.925663 96.408 -127.0175
9.997588 96.432 -127.4531
10.070035 96.456 -127.8875
10.143007 96.480 -128.3206
10.216507 96.503 -128.7526
10.290540 96.526 -129.1836
10.365109 96.549 -129.6135
10.440219 96.571 -130.0424
10.515873 96.593 -130.4702
10.592076 96.615 -130.8971
10.668830 96.637 -131.3231
10.746141 96.658 -131.7480
10.824012 96.679 -132.1719
10.902447 96.700 -132.5948
10.981451 96.721 -133.0167
11.061027 96.741 -133.4375
11.141180 96.761 -133.8571
11.221913 96.780 -134.2756
11.303232 96.799 -134.6929
11.385140 96.818 -135.1088
11.467641 96.837 -135.5235
11.550741 96.855 -135.9367
11.634442 96.873 -136.3484
11.718750 96.890 -136.7587
11.803669 96.908 -137.1673
11.889203 96.925 -137.5744
11.975357 96.941 -137.9798
12.062136 96.958 -138.3835
12.149543 96.974 -138.7856
12.237583 96.990 -139.1859
12.326262 97.005 -139.5845
12.415583 97.021 -139.9816
12.505552 97.036 -140.3770
12.596172 97.051 -140.7708
12.687449 97.066 -141.1632
12.779387 97.081 -141.5542
12.871992 97.095 -141.9439
12.965268 97.109 -142.3325
13.059220 97.123 -142.7200
13.153852 97.137 -143.1066
13.249170 97.151 -143.4923
13.345179 97.165 -143.8773
13.441884 97.178 -144.2616
13.539289 97.191 -144.6454
13.637401 97.204 -145.0285
13.736223 97.216 -145.4111
13.835761 97.229 -145.7932
13.936021 97.241 -146.1747
14.037007 97.252 -146.5554
14.138725 97.264 -146.9354
14.241180 97.275 -147.3145
14.344377 97.285 -147.6926
14.448323 97.295 -148.0696
14.553021 97.305 -148.4453
14.658478 97.315 -148.8196
14.764700 97.324 -149.1924
14.871691 97.333 -149.5636
14.979457 97.341 -149.9331
15.088005 97.350 -150.3009
15.197339 97.358 -150.6671
15.307465 97.365 -151.0315
15.418389 97.373 -151.3943
15.530117 97.380 -151.7556
15.642655 97.387 -152.1154
15.756008 97.394 -152.4740
15.870182 97.401 -152.8313
15.985184 97.408 -153.1875
16.101019 97.414 -153.5427
16.217694 97.420 -153.8971
16.335214 97.426 -154.2506
16.453586 97.432 -154.6034
16.572815 97.438 -154.9554
16.692909 97.443 -155.3067
16.813872 97.448 -155.6572
16.935713 97.453 -156.0068
17.058436 97.457 -156.3554
17.182048 97.462 -156.7030
17.306556 97.466 -157.0495
17.431967 97.469 -157.3948
17.558286 97.473 -157.7388
17.685521 97.476 -158.0814
17.813677 97.479 -158.4226
17.942762 97.482 -158.7624
18.072783 97.484 -159.1008
18.203746 97.486 -159.4378
18.335658 97.488 -159.7736
18.468526 97.490 -160.1082
18.602356 97.492 -160.4416
18.737156 97.494 -160.7741
18.872934 97.495 -161.1057
19.009695 97.497 -161.4366
19.147447 97.498 -161.7667
19.286197 97.499 -162.0961
19.425953 97.499 -162.4248
19.566721 97.500 -162.7528
19.708510 97.500 -163.0800
19.851326 97.500 -163.4063
19.995177 97.500 -163.7316
20.140070 97.499 -164.0558
20.286013 97.498 -164.3788
20.433014 97.497 -164.7004
20.581080 97.495 -165.0206
20.730219 97.494 -165.3395
20.880439 97.492 -165.6570
21.031747 97.490 -165.9732
21.184152 97.488 -166.2883
21.337661 97.486 -166.6025
21.492282 97.483 -166.9158
21.648024 97.481 -167.2285
21.804895 97.478 -167.5405
21.962902 97.475 -167.8520
22.122054 97.472 -168.1630
22.282360 97.468 -168.4733
22.443827 97.464 -168.7828
22.606464 97.460 -169.0912
22.770280 97.456 -169.3986
22.935283 97.451 -169.7046
23.101481 97.446 -170.0092
23.268884 97.441 -170.3124
23.437500 97.436 -170.6143
23.607338 97.430 -170.9152
23.778406 97.425 -171.2153
23.950714 97.419 -171.5148
24.124271 97.413 -171.8140
24.299086 97.407 -172.1131
24.475167 97.401 -172.4121
24.652524 97.394 -172.7107
24.831166 97.387 -173.0088
25.011103 97.380 -173.3057
25.192344 97.372 -173.6009
25.374898 97.364 -173.8939
25.558775 97.356 -174.1842
25.743984 97.347 -174.4717
25.930536 97.338 -174.7563
26.118439 97.330 -175.0384
26.307704 97.321 -175.3188
26.498341 97.313 -175.5983
26.690359 97.305 -175.8779
26.883768 97.297 -176.1584
27.078579 97.290 -176.4405
27.274801 97.281 -176.7244
27.472446 97.273 -177.0099
27.671522 97.264 -177.2962
27.872042 97.254 -177.5825
28.074014 97.244 -177.8674
28.277450 97.233 -178.1499
28.482360 97.221 -178.4290
28.688755 97.210 -178.7044
28.896645 97.198 -178.9761
29.106042 97.186 -179.2446
29.316957 97.174 -179.5109
29.529400 97.162 -179.7759
29.743382 97.150 179.9595
29.958915 97.139 179.6946
30.176009 97.127 179.4293
30.394677 97.115 179.1638
30.614929 97.102 178.8987
30.836778 97.089 178.6349
31.060234 97.075 178.3729
31.285309 97.061 178.1131
31.512015 97.047 177.8557
31.740364 97.033 177.6002
31.970368 97.019 177.3459
32.202039 97.005 177.0924
32.435388 96.991 176.8389
32.670428 96.977 176.5852
32.907171 96.963 176.3314
33.145630 96.948 176.0779
33.385817 96.932 175.8254
33.627745 96.917 175.5746
33.871425 96.901 175.3263
34.116871 96.885 175.0806
34.364096 96.869 174.8377
34.613113 96.853 174.5972
34.863934 96.837 174.3585
35.116572 96.822 174.1207
35.371041 96.807 173.8832
35.627354 96.792 173.6449
35.885525 96.777 173.4055
36.145566 96.761 173.1644
36.407492 96.746 172.9218
36.671316 96.730 172.6782
36.937051 96.714 172.4343
37.204712 96.697 172.1911
37.474313 96.680 171.9496
37.745867 96.662 171.7106
38.019389 96.644 171.4746
38.294893 96.625 171.2417
38.572394 96.607 171.0114
38.851905 96.589 170.7829
39.133442 96.571 170.5552
39.417019 96.552 170.3272
39.702651 96.534 170.0980
39.990353 96.516 169.8668
40.280140 96.498 169.6330
40.572026 96.479 169.3967
40.866028 96.459 169.1586
41.162160 96.439 168.9198
41.460438 96.418 168.6821
41.760877 96.396 168.4475
42.063494 96.373 168.2179
42.368303 96.349 167.9944
42.675322 96.326 167.7775
42.984565 96.303 167.5663
43.296048 96.281 167.3593
43.609789 96.259 167.1545
43.925804 96.239 166.9499
44.244108 96.218 166.7435
44.564719 96.198 166.5341
44.887654 96.179 166.3210
45.212928 96.158 166.1044
45.540560 96.138 165.8853
45.870565 96.116 165.6655
46.202962 96.093 165.4471
46.537768 96.070 165.2319
46.875000 96.047 165.0209
47.214676 96.022 164.8141
47.556813 95.998 164.6105
47.901429 95.974 164.4088
48.248542 95.950 164.2081
48.598171 95.926 164.0076
48.950334 95.901 163.8066
49.305048 95.877 163.6035
49.662333 95.853 163.3967
50.022206 95.827 163.1854
50.384688 95.801 162.9706
50.749796 95.773 162.7563
51.117550 95.744 162.5478
51.487969 95.714 162.3502
51.861072 95.684 162.1656
52.236879 95.655 161.9919
52.615409 95.628 161.8239
52.996681 95.603 161.6550
53.380717 95.579 161.4804
53.767536 95.556 161.2982
54.157158 95.532 161.1098
54.549603 95.509 160.9180
54.944892 95.484 160.7257
55.343045 95.459 160.5349
55.744084 95.434 160.3464
56.148028 95.408 160.1609
56.554900 95.382 159.9795
56.964720 95.355 159.8036
57.377510 95.328 159.6343
57.793291 95.301 159.4711
58.212085 95.274 159.3117
58.633914 95.249 159.1521
59.058799 95.224 158.9885
59.486764 95.198 158.8190
59.917829 95.173 158.6435
60.352019 95.147 158.4632
60.789354 95.120 158.2791
61.229859 95.092 158.0919
61.673556 95.063 157.9021
62.120468 95.034 157.7113
62.570618 95.003 157.5212
63.024031 94.972 157.3336
63.480729 94.940 157.1487
63.940736 94.908 156.9668
64.404077 94.875 156.7877
64.870776 94.842 156.6118
65.340856 94.809 156.4396
65.814343 94.775 156.2708
66.291261 94.742 156.1040
66.771635 94.708 155.9379
67.255489 94.675 155.7714
67.742850 94.641 155.6049
68.233743 94.606 155.4394
68.728193 94.571 155.2759
69.226226 94.536 155.1149
69.727867 94.500 154.9558
70.233144 94.464 154.7985
70.742083 94.427 154.6436
71.254709 94.390 154.4924
71.771050 94.354 154.3458
72.291132 94.317 154.2028
72.814984 94.280 154.0610
73.342631 94.244 153.9185
73.874102 94.207 153.7753
74.409424 94.169 153.6326
74.948626 94.131 153.4918
75.491734 94.093 153.3538
76.038779 94.053 153.2189
76.589787 94.014 153.0875
77.144788 93.974 152.9599
77.703811 93.933 152.8359
78.266885 93.893 152.7148
78.834039 93.853 152.5956
79.405303 93.813 152.4771
79.980706 93.774 152.3585
80.560280 93.734 152.2393
81.144053 93.693 152.1189
81.732056 93.652 151.9984
82.324320 93.610 151.8812
82.920876 93.566 151.7723
83.521755 93.522 151.6759
84.126988 93.477 151.5925
84.736607 93.433 151.5188
85.350643 93.390 151.4506
85.969129 93.348 151.3845
86.592097 93.306 151.3186
87.219579 93.263 151.2521
87.851608 93.221 151.1851
88.488217 93.180 151.1173
89.129439 93.138 151.0480
89.775308 93.096 150.9770
90.425856 93.054 150.9044
91.081119 93.011 150.8313
91.741131 92.969 150.7593
92.405925 92.926 150.6897
93.075536 92.882 150.6242
93.750000 92.839 150.5638
94.429351 92.795 150.5091
95.113625 92.751 150.4600
