* Measurement data measured by REW V5.31.3
* Source: Headset (2- CX31993 HIFI AUDIO), MICROPHONE (Master Volume), R, volume: 0.400
* Format: 256k Log Swept Sine, 1 sweep at -12.0 dBFS with no timing reference
* Dated: 09 25, 24 4:08:44 PM
* REW Settings:
*  C-weighting compensation: Off
*  Target level: 75.0 dB
* Note: ; 
* Measurement: MAY2DUSK L
* Smoothing: 1/12 octave
* Frequency Step: 96 ppo
* Start Frequency: 0.36621094 Hz
*
* Freq(Hz) SPL(dB) Phase(degrees)
0.366211 53.663 21.8256
0.368865 53.688 21.8468
0.371538 53.724 21.8787
0.374230 53.770 21.9188
0.376942 53.820 21.9652
0.379673 53.875 22.0163
0.382424 53.931 22.0712
0.385196 53.990 22.1293
0.387987 54.049 22.1901
0.390798 54.108 22.2534
0.393630 54.169 22.3192
0.396483 54.230 22.3872
0.399356 54.291 22.4575
0.402250 54.353 22.5299
0.405165 54.415 22.6044
0.408101 54.478 22.6809
0.411058 54.541 22.7594
0.414037 54.605 22.8398
0.417037 54.669 22.9220
0.420059 54.734 23.0060
0.423103 54.799 23.0917
0.426169 54.864 23.1790
0.429257 54.930 23.2679
0.432368 54.997 23.3583
0.435501 55.064 23.4501
0.438656 55.131 23.5432
0.441835 55.199 23.6375
0.445037 55.268 23.7330
0.448262 55.337 23.8296
0.451510 55.406 23.9271
0.454782 55.476 24.0256
0.458077 55.546 24.1248
0.461397 55.617 24.2248
0.464740 55.689 24.3253
0.468108 55.761 24.4264
0.471500 55.833 24.5279
0.474917 55.906 24.6296
0.478358 55.980 24.7316
0.481825 56.054 24.8336
0.485316 56.129 24.9357
0.488833 56.204 25.0376
0.492375 56.280 25.1393
0.495943 56.356 25.2406
0.499537 56.433 25.3414
0.503157 56.510 25.4417
0.506803 56.588 25.5413
0.510475 56.667 25.6401
0.514175 56.746 25.7379
0.517900 56.825 25.8347
0.521653 56.906 25.9303
0.525434 56.987 26.0246
0.529241 57.068 26.1175
0.533076 57.150 26.2088
0.536939 57.233 26.2985
0.540830 57.316 26.3864
0.544749 57.400 26.4724
0.548696 57.484 26.5564
0.552673 57.569 26.6382
0.556677 57.655 26.7178
0.560711 57.741 26.7949
0.564774 57.828 26.8695
0.568867 57.915 26.9415
0.572989 58.003 27.0107
0.577141 58.092 27.0771
0.581324 58.182 27.1404
0.585536 58.272 27.2006
0.589779 58.363 27.2576
0.594053 58.454 27.3112
0.598358 58.546 27.3614
0.602694 58.639 27.4080
0.607061 58.732 27.4508
0.611460 58.826 27.4899
0.615891 58.921 27.5251
0.620354 59.016 27.5563
0.624849 59.113 27.5833
0.629377 59.209 27.6061
0.633938 59.307 27.6246
0.638532 59.405 27.6387
0.643159 59.504 27.6483
0.647819 59.604 27.6533
0.652514 59.704 27.6535
0.657242 59.805 27.6490
0.662005 59.907 27.6397
0.666802 60.010 27.6254
0.671634 60.113 27.6060
0.676501 60.217 27.5816
0.681403 60.322 27.5520
0.686341 60.428 27.5172
0.691314 60.534 27.4772
0.696324 60.641 27.4318
0.701370 60.749 27.3812
0.706452 60.858 27.3254
0.711571 60.967 27.2646
0.716728 61.076 27.1990
0.721921 61.187 27.1294
0.727153 61.297 27.0564
0.732422 61.408 26.9812
0.737729 61.518 26.9052
0.743075 61.629 26.8294
0.748460 61.740 26.7550
0.753883 61.852 26.6825
0.759346 61.965 26.6121
0.764849 62.078 26.5440
0.770391 62.192 26.4781
0.775974 62.306 26.4142
0.781597 62.422 26.3521
0.787261 62.538 26.2914
0.792966 62.655 26.2319
0.798712 62.773 26.1734
0.804500 62.891 26.1155
0.810329 63.010 26.0580
0.816201 63.131 26.0005
0.822116 63.252 25.9429
0.828073 63.373 25.8847
0.834074 63.496 25.8259
0.840118 63.619 25.7660
0.846206 63.743 25.7048
0.852338 63.867 25.6421
0.858514 63.993 25.5776
0.864735 64.119 25.5110
0.871001 64.245 25.4422
0.877313 64.373 25.3708
0.883670 64.501 25.2966
0.890074 64.630 25.2194
0.896524 64.759 25.1390
0.903020 64.889 25.0551
0.909564 65.020 24.9676
0.916155 65.151 24.8761
0.922794 65.283 24.7805
0.929481 65.416 24.6805
0.936216 65.549 24.5760
0.943000 65.682 24.4667
0.949834 65.816 24.3525
0.956717 65.951 24.2331
0.963649 66.086 24.1084
0.970632 66.221 23.9781
0.977666 66.357 23.8421
0.984750 66.493 23.7002
0.991886 66.630 23.5523
0.999074 66.767 23.3980
1.006314 66.904 23.2373
1.013606 67.042 23.0700
1.020951 67.180 22.8960
1.028349 67.318 22.7150
1.035801 67.456 22.5270
1.043307 67.595 22.3317
1.050867 67.734 22.1292
1.058482 67.873 21.9195
1.066152 68.011 21.7025
1.073878 68.150 21.4785
1.081660 68.289 21.2479
1.089498 68.428 21.0116
1.097393 68.568 20.7706
1.105345 68.707 20.5262
1.113355 68.846 20.2797
1.121423 68.985 20.0322
1.129549 69.125 19.7845
1.137734 69.265 19.5370
1.145979 69.405 19.2898
1.154283 69.545 19.0430
1.162647 69.685 18.7965
1.171072 69.825 18.5502
1.179558 69.965 18.3037
1.188106 70.106 18.0570
1.196715 70.247 17.8099
1.205387 70.388 17.5620
1.214122 70.529 17.3131
1.222920 70.670 17.0631
1.231782 70.811 16.8117
1.240708 70.953 16.5587
1.249699 71.094 16.3038
1.258754 71.236 16.0468
1.267876 71.378 15.7875
1.277063 71.520 15.5257
1.286318 71.662 15.2611
1.295639 71.804 14.9934
1.305027 71.946 14.7225
1.314484 72.089 14.4481
1.324009 72.232 14.1700
1.333604 72.374 13.8880
1.343268 72.517 13.6018
1.353002 72.660 13.3111
1.362806 72.804 13.0159
1.372681 72.947 12.7158
1.382628 73.090 12.4105
1.392647 73.234 12.1000
1.402739 73.378 11.7841
1.412904 73.522 11.4625
1.423142 73.666 11.1354
1.433455 73.810 10.8027
1.443843 73.954 10.4648
1.454305 74.098 10.1222
1.464844 74.243 9.7758
1.475459 74.387 9.4266
1.486150 74.531 9.0756
1.496920 74.675 8.7236
1.507767 74.818 8.3712
1.518693 74.962 8.0185
1.529698 75.105 7.6656
1.540783 75.248 7.3123
1.551948 75.391 6.9586
1.563194 75.533 6.6041
1.574521 75.676 6.2487
1.585931 75.818 5.8919
1.597423 75.960 5.5335
1.608999 76.101 5.1732
1.620658 76.243 4.8106
1.632402 76.384 4.4456
1.644232 76.525 4.0776
1.656146 76.666 3.7064
1.668147 76.807 3.3317
1.680235 76.947 2.9531
1.692411 77.087 2.5702
1.704675 77.228 2.1829
1.717028 77.368 1.7906
1.729470 77.508 1.3931
1.742003 77.648 0.9900
1.754626 77.788 0.5810
1.767341 77.928 0.1658
1.780147 78.068 -0.2557
1.793047 78.207 -0.6839
1.806040 78.347 -1.1186
1.819128 78.487 -1.5596
1.832310 78.626 -2.0067
1.845587 78.765 -2.4591
1.858961 78.904 -2.9162
1.872432 79.042 -3.3774
1.886001 79.180 -3.8422
1.899667 79.317 -4.3101
1.913433 79.454 -4.7809
1.927299 79.590 -5.2543
1.941265 79.726 -5.7301
1.955332 79.861 -6.2082
1.969501 79.996 -6.6885
1.983773 80.130 -7.1709
1.998148 80.264 -7.6555
2.012627 80.398 -8.1423
2.027212 80.531 -8.6312
2.041902 80.663 -9.1224
2.056698 80.796 -9.6159
2.071602 80.928 -10.1118
2.086614 81.059 -10.6103
2.101734 81.191 -11.1115
2.116964 81.322 -11.6157
2.132304 81.453 -12.1230
2.147756 81.583 -12.6337
2.163320 81.713 -13.1480
2.178996 81.843 -13.6663
2.194786 81.973 -14.1886
2.210690 82.102 -14.7152
2.226710 82.230 -15.2461
2.242845 82.358 -15.7812
2.259098 82.485 -16.3202
2.275468 82.611 -16.8628
2.291957 82.737 -17.4087
2.308566 82.862 -17.9575
2.325295 82.986 -18.5089
2.342145 83.110 -19.0625
2.359117 83.233 -19.6181
2.376212 83.356 -20.1754
2.393431 83.477 -20.7342
2.410775 83.599 -21.2943
2.428244 83.719 -21.8555
2.445840 83.839 -22.4178
2.463564 83.959 -22.9810
2.481416 84.078 -23.5453
2.499397 84.197 -24.1107
2.517509 84.315 -24.6775
2.535752 84.433 -25.2459
2.554127 84.550 -25.8166
2.572635 84.667 -26.3899
2.591277 84.783 -26.9666
2.610055 84.898 -27.5468
2.628968 85.012 -28.1307
2.648019 85.126 -28.7180
2.667208 85.238 -29.3085
2.686535 85.350 -29.9016
2.706003 85.461 -30.4970
2.725612 85.571 -31.0941
2.745363 85.680 -31.6924
2.765257 85.789 -32.2914
2.785295 85.897 -32.8907
2.805478 86.004 -33.4900
2.825808 86.111 -34.0888
2.846285 86.217 -34.6871
2.866910 86.323 -35.2847
2.887685 86.428 -35.8818
2.908611 86.532 -36.4788
2.929688 86.636 -37.0763
2.950917 86.739 -37.6749
2.972301 86.841 -38.2755
2.993839 86.943 -38.8783
3.015534 87.043 -39.4834
3.037386 87.143 -40.0906
3.059396 87.241 -40.6995
3.081565 87.339 -41.3097
3.103896 87.436 -41.9205
3.126388 87.532 -42.5314
3.149043 87.628 -43.1417
3.171862 87.723 -43.7510
3.194847 87.817 -44.3587
3.217998 87.910 -44.9646
3.241317 88.003 -45.5685
3.264805 88.096 -46.1704
3.288463 88.188 -46.7709
3.312293 88.279 -47.3705
3.336295 88.369 -47.9699
3.360471 88.459 -48.5696
3.384822 88.548 -49.1698
3.409350 88.636 -49.7705
3.434056 88.723 -50.3715
3.458940 88.809 -50.9724
3.484005 88.895 -51.5727
3.509252 88.980 -52.1720
3.534681 89.064 -52.7696
3.560295 89.148 -53.3653
3.586094 89.231 -53.9586
3.612081 89.314 -54.5495
3.638255 89.397 -55.1379
3.664620 89.479 -55.7241
3.691175 89.560 -56.3086
3.717923 89.641 -56.8920
3.744864 89.721 -57.4744
3.772001 89.800 -58.0562
3.799335 89.879 -58.6372
3.826866 89.957 -59.2172
3.854597 90.035 -59.7962
3.882529 90.112 -60.3736
3.910664 90.189 -60.9493
3.939002 90.265 -61.5230
3.967546 90.341 -62.0945
3.996296 90.417 -62.6637
4.025255 90.492 -63.2309
4.054423 90.567 -63.7962
4.083804 90.641 -64.3599
4.113396 90.715 -64.9223
4.143204 90.789 -65.4836
4.173227 90.862 -66.0438
4.203468 90.935 -66.6030
4.233928 91.007 -67.1611
4.264609 91.079 -67.7181
4.295512 91.151 -68.2738
4.326639 91.223 -68.8284
4.357992 91.294 -69.3817
4.389572 91.365 -69.9339
4.421380 91.435 -70.4851
4.453419 91.506 -71.0356
4.485691 91.576 -71.5855
4.518196 91.645 -72.1349
4.550936 91.715 -72.6839
4.583914 91.784 -73.2324
4.617131 91.852 -73.7805
4.650589 91.920 -74.3283
4.684289 91.988 -74.8757
4.718233 92.056 -75.4228
4.752424 92.123 -75.9698
4.786862 92.191 -76.5169
4.821549 92.257 -77.0641
4.856488 92.323 -77.6116
4.891680 92.389 -78.1595
4.927127 92.455 -78.7075
4.962831 92.520 -79.2557
4.998794 92.585 -79.8040
5.035017 92.649 -80.3523
5.071503 92.712 -80.9007
5.108253 92.776 -81.4493
5.145270 92.838 -81.9982
5.182555 92.901 -82.5476
5.220110 92.962 -83.0976
5.257937 93.024 -83.6480
5.296038 93.084 -84.1989
5.334415 93.144 -84.7498
5.373071 93.204 -85.3006
5.412006 93.263 -85.8510
5.451224 93.321 -86.4011
5.490725 93.379 -86.9508
5.530514 93.436 -87.5002
5.570590 93.492 -88.0496
5.610957 93.548 -88.5988
5.651616 93.603 -89.1478
5.692570 93.657 -89.6962
5.733821 93.711 -90.2437
5.775370 93.764 -90.7900
5.817221 93.817 -91.3349
5.859375 93.869 -91.8784
5.901834 93.920 -92.4205
5.944602 93.970 -92.9612
5.987679 94.020 -93.5007
6.031068 94.069 -94.0387
6.074771 94.118 -94.5751
6.118792 94.166 -95.1095
6.163131 94.213 -95.6418
6.207792 94.260 -96.1717
6.252776 94.306 -96.6993
6.298086 94.352 -97.2246
6.343725 94.397 -97.7477
6.389694 94.442 -98.2686
6.435996 94.486 -98.7872
6.482634 94.530 -99.3035
6.529610 94.573 -99.8173
6.576926 94.616 -100.3286
6.624585 94.658 -100.8375
6.672590 94.700 -101.3439
6.720942 94.742 -101.8480
6.769645 94.783 -102.3499
6.818700 94.825 -102.8496
6.868111 94.865 -103.3474
6.917881 94.906 -103.8431
6.968010 94.946 -104.3370
7.018504 94.986 -104.8290
7.069362 95.026 -105.3193
7.120590 95.065 -105.8080
7.172189 95.104 -106.2952
7.224161 95.143 -106.7812
7.276511 95.182 -107.2659
7.329239 95.220 -107.7496
7.382350 95.258 -108.2322
7.435845 95.296 -108.7140
7.489729 95.334 -109.1950
7.544002 95.371 -109.6752
7.598669 95.408 -110.1547
7.653732 95.445 -110.6336
7.709194 95.481 -111.1119
7.765058 95.517 -111.5898
7.821327 95.553 -112.0671
7.878004 95.588 -112.5440
7.935091 95.623 -113.0202
7.992592 95.657 -113.4958
8.050510 95.691 -113.9708
8.108847 95.725 -114.4451
8.167607 95.758 -114.9187
8.226793 95.791 -115.3916
8.286408 95.823 -115.8635
8.346454 95.855 -116.3345
8.406936 95.886 -116.8043
8.467856 95.917 -117.2729
8.529218 95.947 -117.7403
8.591024 95.977 -118.2063
8.653278 96.007 -118.6710
8.715983 96.036 -119.1341
8.779143 96.065 -119.5957
8.842760 96.093 -120.0555
8.906839 96.121 -120.5137
8.971381 96.148 -120.9701
9.036392 96.175 -121.4248
9.101873 96.202 -121.8778
9.167829 96.229 -122.3289
9.234263 96.255 -122.7782
9.301178 96.281 -123.2258
9.368578 96.306 -123.6717
9.436467 96.332 -124.1159
9.504847 96.357 -124.5585
9.573723 96.382 -124.9995
9.643099 96.406 -125.4389
9.712976 96.430 -125.8769
9.783361 96.455 -126.3136
9.854255 96.478 -126.7489
9.925663 96.502 -127.1829
9.997588 96.525 -127.6158
10.070035 96.549 -128.0475
10.143007 96.572 -128.4782
10.216507 96.594 -128.9078
10.290540 96.617 -129.3365
10.365109 96.639 -129.7643
10.440219 96.661 -130.1912
10.515873 96.683 -130.6172
10.592076 96.704 -131.0423
10.668830 96.726 -131.4666
10.746141 96.747 -131.8901
10.824012 96.767 -132.3128
10.902447 96.788 -132.7346
10.981451 96.808 -133.1555
11.061027 96.828 -133.5755
11.141180 96.847 -133.9947
11.221913 96.867 -134.4129
11.303232 96.885 -134.8301
11.385140 96.904 -135.2462
11.467641 96.922 -135.6613
11.550741 96.940 -136.0751
11.634442 96.958 -136.4878
11.718750 96.975 -136.8992
11.803669 96.992 -137.3091
11.889203 97.009 -137.7177
11.975357 97.026 -138.1247
12.062136 97.042 -138.5302
12.149543 97.057 -138.9341
12.237583 97.073 -139.3362
12.326262 97.088 -139.7367
12.415583 97.103 -140.1355
12.505552 97.118 -140.5325
12.596172 97.133 -140.9277
12.687449 97.147 -141.3213
12.779387 97.161 -141.7133
12.871992 97.175 -142.1036
12.965268 97.189 -142.4925
13.059220 97.203 -142.8799
13.153852 97.216 -143.2660
13.249170 97.229 -143.6509
13.345179 97.242 -144.0346
13.441884 97.255 -144.4173
13.539289 97.268 -144.7991
13.637401 97.280 -145.1799
13.736223 97.293 -145.5598
13.835761 97.304 -145.9389
13.936021 97.316 -146.3172
14.037007 97.328 -146.6945
14.138725 97.339 -147.0709
14.241180 97.349 -147.4462
14.344377 97.360 -147.8203
14.448323 97.370 -148.1932
14.553021 97.380 -148.5647
14.658478 97.389 -148.9346
14.764700 97.398 -149.3030
14.871691 97.407 -149.6696
14.979457 97.416 -150.0345
15.088005 97.424 -150.3976
15.197339 97.432 -150.7588
15.307465 97.440 -151.1183
15.418389 97.448 -151.4761
15.530117 97.455 -151.8323
15.642655 97.462 -152.1870
15.756008 97.469 -152.5403
15.870182 97.476 -152.8925
15.985184 97.483 -153.2435
16.101019 97.490 -153.5937
16.217694 97.496 -153.9430
16.335214 97.502 -154.2916
16.453586 97.508 -154.6395
16.572815 97.514 -154.9869
16.692909 97.520 -155.3336
16.813872 97.525 -155.6797
16.935713 97.530 -156.0252
17.058436 97.535 -156.3700
17.182048 97.539 -156.7140
17.306556 97.543 -157.0572
17.431967 97.547 -157.3996
17.558286 97.551 -157.7409
17.685521 97.554 -158.0813
17.813677 97.557 -158.4207
17.942762 97.560 -158.7590
18.072783 97.562 -159.0962
18.203746 97.565 -159.4323
18.335658 97.567 -159.7673
18.468526 97.569 -160.1011
18.602356 97.570 -160.4338
18.737156 97.572 -160.7655
18.872934 97.573 -161.0960
19.009695 97.574 -161.4254
19.147447 97.575 -161.7538
19.286197 97.576 -162.0812
19.425953 97.576 -162.4076
19.566721 97.577 -162.7332
19.708510 97.577 -163.0579
19.851326 97.577 -163.3819
19.995177 97.577 -163.7050
20.140070 97.576 -164.0275
20.286013 97.576 -164.3491
20.433014 97.575 -164.6699
20.581080 97.574 -164.9897
20.730219 97.572 -165.3083
20.880439 97.571 -165.6257
21.031747 97.569 -165.9416
21.184152 97.567 -166.2559
21.337661 97.565 -166.5686
21.492282 97.562 -166.8795
21.648024 97.560 -167.1889
21.804895 97.557 -167.4966
21.962902 97.554 -167.8031
22.122054 97.551 -168.1083
22.282360 97.548 -168.4125
22.443827 97.545 -168.7159
22.606464 97.542 -169.0186
22.770280 97.538 -169.3205
22.935283 97.535 -169.6215
23.101481 97.531 -169.9215
23.268884 97.527 -170.2202
23.437500 97.522 -170.5176
23.607338 97.517 -170.8134
23.778406 97.513 -171.1076
23.950714 97.508 -171.4006
24.124271 97.503 -171.6926
24.299086 97.498 -171.9841
24.475167 97.493 -172.2757
24.652524 97.488 -172.5681
24.831166 97.483 -172.8615
25.011103 97.477 -173.1562
25.192344 97.471 -173.4521
25.374898 97.465 -173.7489
25.558775 97.458 -174.0458
25.743984 97.450 -174.3419
25.930536 97.442 -174.6363
26.118439 97.433 -174.9281
26.307704 97.423 -175.2168
26.498341 97.414 -175.5020
26.690359 97.404 -175.7841
26.883768 97.394 -176.0636
27.078579 97.384 -176.3413
27.274801 97.375 -176.6180
27.472446 97.366 -176.8947
27.671522 97.356 -177.1718
27.872042 97.346 -177.4494
28.074014 97.336 -177.7273
28.277450 97.326 -178.0049
28.482360 97.315 -178.2815
28.688755 97.304 -178.5562
28.896645 97.293 -178.8285
29.106042 97.281 -179.0981
29.316957 97.269 -179.3651
29.529400 97.258 -179.6299
29.743382 97.246 -179.8931
29.958915 97.235 179.8447
30.176009 97.224 179.5829
30.394677 97.212 179.3213
30.614929 97.201 179.0596
30.836778 97.189 178.7981
31.060234 97.178 178.5369
31.285309 97.166 178.2759
31.512015 97.154 178.0155
31.740364 97.142 177.7555
31.970368 97.129 177.4958
32.202039 97.116 177.2364
32.435388 97.103 176.9772
32.670428 97.090 176.7182
32.907171 97.076 176.4598
33.145630 97.062 176.2022
33.385817 97.048 175.9457
33.627745 97.033 175.6907
33.871425 97.017 175.4374
34.116871 97.002 175.1862
34.364096 96.986 174.9373
34.613113 96.969 174.6910
34.863934 96.953 174.4476
35.116572 96.937 174.2071
35.371041 96.920 173.9692
35.627354 96.904 173.7334
35.885525 96.888 173.4985
36.145566 96.873 173.2631
36.407492 96.858 173.0258
36.671316 96.843 172.7858
36.937051 96.827 172.5426
37.204712 96.811 172.2971
37.474313 96.795 172.0508
37.745867 96.777 171.8057
38.019389 96.759 171.5637
38.294893 96.741 171.3262
38.572394 96.722 171.0932
38.851905 96.704 170.8641
39.133442 96.686 170.6372
39.417019 96.668 170.4110
39.702651 96.650 170.1846
39.990353 96.632 169.9579
40.280140 96.613 169.7322
40.572026 96.594 169.5089
40.866028 96.574 169.2894
41.162160 96.554 169.0739
41.460438 96.535 168.8617
41.760877 96.516 168.6511
42.063494 96.497 168.4402
42.368303 96.479 168.2273
42.675322 96.460 168.0118
42.984565 96.441 167.7939
43.296048 96.422 167.5740
43.609789 96.402 167.3525
43.925804 96.382 167.1292
44.244108 96.362 166.9039
44.564719 96.341 166.6767
44.887654 96.320 166.4485
45.212928 96.298 166.2206
45.540560 96.275 165.9951
45.870565 96.252 165.7731
46.202962 96.228 165.5550
46.537768 96.205 165.3401
46.875000 96.182 165.1274
47.214676 96.159 164.9160
47.556813 96.137 164.7057
47.901429 96.114 164.4972
48.248542 96.091 164.2910
48.598171 96.069 164.0878
48.950334 96.046 163.8879
49.305048 96.023 163.6913
49.662333 96.001 163.4977
50.022206 95.980 163.3059
50.384688 95.958 163.1136
50.749796 95.938 162.9174
51.117550 95.917 162.7139
51.487969 95.895 162.5021
51.861072 95.872 162.2841
52.236879 95.846 162.0652
52.615409 95.818 161.8524
52.996681 95.789 161.6508
53.380717 95.759 161.4617
53.767536 95.730 161.2819
54.157158 95.702 161.1058
54.549603 95.675 160.9280
54.944892 95.648 160.7454
55.343045 95.622 160.5570
55.744084 95.595 160.3637
56.148028 95.568 160.1661
56.554900 95.541 159.9651
56.964720 95.513 159.7621
57.377510 95.484 159.5603
57.793291 95.454 159.3635
58.212085 95.424 159.1746
58.633914 95.394 158.9946
59.058799 95.365 158.8213
59.486764 95.337 158.6515
59.917829 95.309 158.4823
60.352019 95.282 158.3122
60.789354 95.255 158.1410
61.229859 95.228 157.9684
61.673556 95.201 157.7941
62.120468 95.173 157.6180
62.570618 95.144 157.4404
63.024031 95.115 157.2627
63.480729 95.084 157.0859
63.940736 95.053 156.9100
64.404077 95.021 156.7346
64.870776 94.989 156.5591
65.340856 94.956 156.3838
65.814343 94.922 156.2097
66.291261 94.888 156.0376
66.771635 94.854 155.8679
67.255489 94.820 155.6998
67.742850 94.786 155.5327
68.233743 94.751 155.3661
68.728193 94.717 155.2003
69.226226 94.682 155.0355
69.727867 94.647 154.8720
70.233144 94.612 154.7099
70.742083 94.576 154.5499
71.254709 94.539 154.3940
71.771050 94.502 154.2445
72.291132 94.464 154.1024
72.814984 94.427 153.9660
73.342631 94.391 153.8318
73.874102 94.355 153.6965
74.409424 94.319 153.5583
74.948626 94.282 153.4178
75.491734 94.245 153.2766
76.038779 94.207 153.1358
76.589787 94.169 152.9962
77.144788 94.131 152.8578
77.703811 94.092 152.7208
78.266885 94.052 152.5848
78.834039 94.013 152.4496
79.405303 93.973 152.3154
79.980706 93.932 152.1829
80.560280 93.891 152.0534
81.144053 93.850 151.9289
81.732056 93.808 151.8109
82.324320 93.765 151.7002
82.920876 93.723 151.5963
83.521755 93.682 151.4975
84.126988 93.640 151.4015
84.736607 93.599 151.3068
85.350643 93.557 151.2130
85.969129 93.515 151.1202
86.592097 93.473 151.0297
87.219579 93.430 150.9423
87.851608 93.386 150.8581
88.488217 93.342 150.7769
89.129439 93.298 150.6985
89.775308 93.254 150.6232
90.425856 93.209 150.5511
91.081119 93.165 150.4826
91.741131 93.121 150.4171
92.405925 93.077 150.3543
93.075536 93.033 150.2933
93.750000 92.990 150.2340
94.429351 92.947 150.1769
95.113625 92.903 150.1229
