* Measurement data measured by REW V5.31.3
* Source: Headset (CX31993 HIFI AUDIO), MICROPHONE (Master Volume), R, volume: 0.250
* Format: 256k Log Swept Sine, 1 sweep at -12.0 dBFS with no timing reference
* Dated: 02 3, 25 11:59:03 AM
* REW Settings:
*  C-weighting compensation: Off
*  Target level: 75.0 dB
* Note: ; 
* Measurement: Moondrop Starfield L
* Smoothing: 1/12 octave
* Frequency Step: 96 ppo
* Start Frequency: 0.36621094 Hz
*
* Freq(Hz) SPL(dB) Phase(degrees)
0.366211 44.020 -17.9864
0.368865 44.019 -17.9594
0.371538 44.019 -17.9194
0.374230 44.018 -17.8697
0.376942 44.017 -17.8132
0.379673 44.016 -17.7522
0.382424 44.015 -17.6880
0.385196 44.014 -17.6215
0.387987 44.013 -17.5533
0.390798 44.012 -17.4835
0.393630 44.011 -17.4123
0.396483 44.010 -17.3398
0.399356 44.008 -17.2659
0.402250 44.007 -17.1907
0.405165 44.006 -17.1141
0.408101 44.005 -17.0362
0.411058 44.004 -16.9568
0.414037 44.003 -16.8760
0.417037 44.002 -16.7937
0.420059 44.001 -16.7099
0.423103 43.999 -16.6245
0.426169 43.998 -16.5375
0.429257 43.997 -16.4489
0.432368 43.996 -16.3586
0.435501 43.995 -16.2666
0.438656 43.993 -16.1729
0.441835 43.992 -16.0773
0.445037 43.991 -15.9799
0.448262 43.990 -15.8806
0.451510 43.988 -15.7794
0.454782 43.987 -15.6762
0.458077 43.986 -15.5709
0.461397 43.985 -15.4636
0.464740 43.983 -15.3541
0.468108 43.982 -15.2424
0.471500 43.981 -15.1285
0.474917 43.979 -15.0122
0.478358 43.978 -14.8936
0.481825 43.977 -14.7725
0.485316 43.975 -14.6490
0.488833 43.974 -14.5229
0.492375 43.973 -14.3942
0.495943 43.971 -14.2628
0.499537 43.970 -14.1286
0.503157 43.969 -13.9916
0.506803 43.967 -13.8517
0.510475 43.966 -13.7089
0.514175 43.964 -13.5629
0.517900 43.963 -13.4138
0.521653 43.962 -13.2615
0.525434 43.960 -13.1059
0.529241 43.959 -12.9468
0.533076 43.957 -12.7843
0.536939 43.956 -12.6182
0.540830 43.954 -12.4483
0.544749 43.953 -12.2747
0.548696 43.951 -12.0972
0.552673 43.950 -11.9157
0.556677 43.948 -11.7301
0.560711 43.947 -11.5403
0.564774 43.945 -11.3461
0.568867 43.943 -11.1475
0.572989 43.942 -10.9442
0.577141 43.940 -10.7363
0.581324 43.939 -10.5234
0.585536 43.937 -10.3056
0.589779 43.935 -10.0827
0.594053 43.934 -9.8544
0.598358 43.932 -9.6208
0.602694 43.930 -9.3815
0.607061 43.929 -9.1364
0.611460 43.927 -8.8854
0.615891 43.925 -8.6283
0.620354 43.924 -8.3650
0.624849 43.922 -8.0951
0.629377 43.920 -7.8186
0.633938 43.918 -7.5351
0.638532 43.917 -7.2446
0.643159 43.915 -6.9469
0.647819 43.913 -6.6415
0.652514 43.911 -6.3285
0.657242 43.910 -6.0074
0.662005 43.908 -5.6781
0.666802 43.906 -5.3403
0.671634 43.904 -4.9938
0.676501 43.902 -4.6382
0.681403 43.900 -4.2732
0.686341 43.899 -3.8987
0.691314 43.897 -3.5141
0.696324 43.896 -3.1192
0.701370 43.895 -2.7136
0.706452 43.895 -2.2969
0.711571 43.896 -1.8686
0.716728 43.900 -1.4284
0.721921 43.908 -0.9760
0.727153 43.922 -0.5115
0.732422 43.944 -0.0352
0.737729 43.975 0.4518
0.743075 44.014 0.9486
0.748460 44.061 1.4542
0.753883 44.113 1.9680
0.759346 44.171 2.4893
0.764849 44.233 3.0177
0.770391 44.299 3.5528
0.775974 44.368 4.0941
0.781597 44.441 4.6409
0.787261 44.516 5.1928
0.792966 44.595 5.7491
0.798712 44.677 6.3091
0.804500 44.761 6.8721
0.810329 44.849 7.4376
0.816201 44.940 8.0046
0.822116 45.033 8.5724
0.828073 45.129 9.1404
0.834074 45.229 9.7077
0.840118 45.331 10.2734
0.846206 45.435 10.8370
0.852338 45.543 11.3974
0.858514 45.653 11.9539
0.864735 45.766 12.5058
0.871001 45.881 13.0521
0.877313 46.000 13.5922
0.883670 46.120 14.1253
0.890074 46.243 14.6504
0.896524 46.368 15.1670
0.903020 46.496 15.6742
0.909564 46.626 16.1714
0.916155 46.758 16.6578
0.922794 46.892 17.1326
0.929481 47.028 17.5954
0.936216 47.166 18.0454
0.943000 47.306 18.4820
0.949834 47.447 18.9046
0.956717 47.590 19.3127
0.963649 47.735 19.7057
0.970632 47.881 20.0832
0.977666 48.028 20.4447
0.984750 48.177 20.7897
0.991886 48.326 21.1179
0.999074 48.476 21.4288
1.006314 48.627 21.7222
1.013606 48.779 21.9977
1.020951 48.931 22.2551
1.028349 49.083 22.4941
1.035801 49.235 22.7145
1.043307 49.388 22.9163
1.050867 49.540 23.0993
1.058482 49.692 23.2638
1.066152 49.843 23.4099
1.073878 49.994 23.5384
1.081660 50.144 23.6502
1.089498 50.295 23.7470
1.097393 50.445 23.8310
1.105345 50.596 23.9046
1.113355 50.748 23.9704
1.121423 50.902 24.0304
1.129549 51.057 24.0859
1.137734 51.214 24.1374
1.145979 51.373 24.1852
1.154283 51.534 24.2292
1.162647 51.697 24.2690
1.171072 51.862 24.3043
1.179558 52.029 24.3346
1.188106 52.197 24.3595
1.196715 52.368 24.3786
1.205387 52.540 24.3913
1.214122 52.713 24.3974
1.222920 52.888 24.3963
1.231782 53.065 24.3878
1.240708 53.243 24.3715
1.249699 53.422 24.3470
1.258754 53.602 24.3140
1.267876 53.784 24.2722
1.277063 53.966 24.2213
1.286318 54.149 24.1610
1.295639 54.333 24.0910
1.305027 54.517 24.0110
1.314484 54.702 23.9209
1.324009 54.888 23.8202
1.333604 55.073 23.7089
1.343268 55.259 23.5865
1.353002 55.444 23.4530
1.362806 55.630 23.3080
1.372681 55.815 23.1513
1.382628 55.999 22.9827
1.392647 56.183 22.8021
1.402739 56.366 22.6092
1.412904 56.547 22.4041
1.423142 56.728 22.1868
1.433455 56.908 21.9576
1.443843 57.086 21.7170
1.454305 57.262 21.4662
1.464844 57.438 21.2064
1.475459 57.612 20.9394
1.486150 57.785 20.6668
1.496920 57.958 20.3900
1.507767 58.129 20.1098
1.518693 58.300 19.8268
1.529698 58.469 19.5411
1.540783 58.638 19.2529
1.551948 58.807 18.9618
1.563194 58.974 18.6678
1.574521 59.141 18.3706
1.585931 59.308 18.0699
1.597423 59.474 17.7655
1.608999 59.639 17.4571
1.620658 59.803 17.1443
1.632402 59.967 16.8269
1.644232 60.131 16.5046
1.656146 60.293 16.1770
1.668147 60.456 15.8439
1.680235 60.618 15.5050
1.692411 60.779 15.1598
1.704675 60.940 14.8082
1.717028 61.101 14.4497
1.729470 61.261 14.0841
1.742003 61.421 13.7110
1.754626 61.581 13.3301
1.767341 61.740 12.9412
1.780147 61.899 12.5441
1.793047 62.058 12.1385
1.806040 62.217 11.7246
1.819128 62.375 11.3025
1.832310 62.532 10.8727
1.845587 62.689 10.4358
1.858961 62.846 9.9927
1.872432 63.001 9.5440
1.886001 63.155 9.0905
1.899667 63.309 8.6327
1.913433 63.461 8.1710
1.927299 63.613 7.7059
1.941265 63.763 7.2376
1.955332 63.913 6.7664
1.969501 64.061 6.2926
1.983773 64.209 5.8162
1.998148 64.356 5.3375
2.012627 64.502 4.8565
2.027212 64.647 4.3732
2.041902 64.792 3.8877
2.056698 64.936 3.4000
2.071602 65.079 2.9100
2.086614 65.222 2.4176
2.101734 65.364 1.9227
2.116964 65.506 1.4251
2.132304 65.647 0.9246
2.147756 65.788 0.4210
2.163320 65.928 -0.0861
2.178996 66.068 -0.5972
2.194786 66.207 -1.1125
2.210690 66.346 -1.6325
2.226710 66.483 -2.1573
2.242845 66.620 -2.6869
2.259098 66.756 -3.2211
2.275468 66.890 -3.7594
2.291957 67.023 -4.3015
2.308566 67.156 -4.8468
2.325295 67.287 -5.3947
2.342145 67.417 -5.9447
2.359117 67.547 -6.4963
2.376212 67.675 -7.0490
2.393431 67.802 -7.6025
2.410775 67.929 -8.1563
2.428244 68.055 -8.7101
2.445840 68.180 -9.2636
2.463564 68.304 -9.8167
2.481416 68.428 -10.3692
2.499397 68.551 -10.9211
2.517509 68.673 -11.4727
2.535752 68.795 -12.0244
2.554127 68.916 -12.5768
2.572635 69.036 -13.1307
2.591277 69.155 -13.6871
2.610055 69.274 -14.2463
2.628968 69.391 -14.8087
2.648019 69.507 -15.3740
2.667208 69.621 -15.9419
2.686535 69.735 -16.5119
2.706003 69.848 -17.0831
2.725612 69.959 -17.6550
2.745363 70.070 -18.2268
2.765257 70.180 -18.7978
2.785295 70.288 -19.3672
2.805478 70.396 -19.9345
2.825808 70.504 -20.4991
2.846285 70.610 -21.0606
2.866910 70.716 -21.6188
2.887685 70.822 -22.1735
2.908611 70.926 -22.7253
2.929688 71.030 -23.2748
2.950917 71.133 -23.8227
2.972301 71.236 -24.3701
2.993839 71.337 -24.9175
3.015534 71.437 -25.4650
3.037386 71.536 -26.0126
3.059396 71.633 -26.5599
3.081565 71.730 -27.1063
3.103896 71.827 -27.6513
3.126388 71.922 -28.1941
3.149043 72.016 -28.7341
3.171862 72.111 -29.2705
3.194847 72.204 -29.8029
3.217998 72.297 -30.3305
3.241317 72.390 -30.8532
3.264805 72.482 -31.3708
3.288463 72.574 -31.8836
3.312293 72.665 -32.3919
3.336295 72.755 -32.8966
3.360471 72.845 -33.3980
3.384822 72.934 -33.8967
3.409350 73.023 -34.3926
3.434056 73.110 -34.8859
3.458940 73.198 -35.3763
3.484005 73.284 -35.8637
3.509252 73.371 -36.3476
3.534681 73.457 -36.8277
3.560295 73.543 -37.3037
3.586094 73.629 -37.7753
3.612081 73.715 -38.2421
3.638255 73.801 -38.7040
3.664620 73.887 -39.1610
3.691175 73.973 -39.6132
3.717923 74.059 -40.0607
3.744864 74.144 -40.5041
3.772001 74.230 -40.9436
3.799335 74.315 -41.3796
3.826866 74.401 -41.8125
3.854597 74.486 -42.2427
3.882529 74.571 -42.6705
3.910664 74.657 -43.0960
3.939002 74.743 -43.5195
3.967546 74.830 -43.9411
3.996296 74.916 -44.3607
4.025255 75.004 -44.7782
4.054423 75.091 -45.1935
4.083804 75.179 -45.6064
4.113396 75.267 -46.0171
4.143204 75.356 -46.4259
4.173227 75.445 -46.8334
4.203468 75.534 -47.2402
4.233928 75.624 -47.6471
4.264609 75.714 -48.0547
4.295512 75.804 -48.4637
4.326639 75.895 -48.8747
4.357992 75.986 -49.2878
4.389572 76.078 -49.7032
4.421380 76.170 -50.1208
4.453419 76.262 -50.5404
4.485691 76.355 -50.9618
4.518196 76.448 -51.3854
4.550936 76.541 -51.8113
4.583914 76.635 -52.2401
4.617131 76.729 -52.6724
4.650589 76.822 -53.1088
4.684289 76.916 -53.5498
4.718233 77.010 -53.9958
4.752424 77.104 -54.4472
4.786862 77.197 -54.9039
4.821549 77.291 -55.3660
4.856488 77.384 -55.8332
4.891680 77.478 -56.3053
4.927127 77.571 -56.7822
4.962831 77.664 -57.2638
4.998794 77.756 -57.7501
5.035017 77.848 -58.2413
5.071503 77.939 -58.7374
5.108253 78.030 -59.2387
5.145270 78.120 -59.7455
5.182555 78.209 -60.2578
5.220110 78.297 -60.7755
5.257937 78.385 -61.2981
5.296038 78.472 -61.8251
5.334415 78.557 -62.3559
5.373071 78.642 -62.8898
5.412006 78.726 -63.4264
5.451224 78.809 -63.9655
5.490725 78.891 -64.5070
5.530514 78.972 -65.0511
5.570590 79.051 -65.5979
5.610957 79.129 -66.1472
5.651616 79.206 -66.6984
5.692570 79.282 -67.2506
5.733821 79.357 -67.8030
5.775370 79.430 -68.3547
5.817221 79.503 -68.9052
5.859375 79.574 -69.4542
5.901834 79.644 -70.0018
5.944602 79.713 -70.5481
5.987679 79.781 -71.0929
6.031068 79.847 -71.6358
6.074771 79.913 -72.1762
6.118792 79.977 -72.7134
6.163131 80.041 -73.2467
6.207792 80.104 -73.7757
6.252776 80.166 -74.3003
6.298086 80.228 -74.8205
6.343725 80.289 -75.3364
6.389694 80.349 -75.8481
6.435996 80.408 -76.3555
6.482634 80.467 -76.8584
6.529610 80.526 -77.3568
6.576926 80.584 -77.8504
6.624585 80.642 -78.3392
6.672590 80.700 -78.8234
6.720942 80.758 -79.3033
6.769645 80.816 -79.7793
6.818700 80.874 -80.2518
6.868111 80.932 -80.7213
6.917881 80.990 -81.1879
6.968010 81.048 -81.6521
7.018504 81.106 -82.1140
7.069362 81.165 -82.5739
7.120590 81.224 -83.0323
7.172189 81.283 -83.4898
7.224161 81.342 -83.9469
7.276511 81.401 -84.4042
7.329239 81.461 -84.8622
7.382350 81.520 -85.3211
7.435845 81.580 -85.7811
7.489729 81.640 -86.2425
7.544002 81.700 -86.7055
7.598669 81.760 -87.1705
7.653732 81.819 -87.6379
7.709194 81.879 -88.1077
7.765058 81.938 -88.5802
7.821327 81.997 -89.0552
7.878004 82.056 -89.5327
7.935091 82.114 -90.0125
7.992592 82.172 -90.4945
8.050510 82.230 -90.9785
8.108847 82.286 -91.4644
8.167607 82.343 -91.9521
8.226793 82.398 -92.4412
8.286408 82.453 -92.9313
8.346454 82.507 -93.4221
8.406936 82.561 -93.9130
8.467856 82.614 -94.4039
8.529218 82.666 -94.8945
8.591024 82.718 -95.3847
8.653278 82.769 -95.8740
8.715983 82.819 -96.3621
8.779143 82.869 -96.8488
8.842760 82.918 -97.3339
8.906839 82.967 -97.8173
8.971381 83.016 -98.2991
9.036392 83.064 -98.7793
9.101873 83.112 -99.2578
9.167829 83.159 -99.7349
9.234263 83.207 -100.2104
9.301178 83.254 -100.6848
9.368578 83.301 -101.1582
9.436467 83.348 -101.6309
9.504847 83.394 -102.1033
9.573723 83.441 -102.5754
9.643099 83.487 -103.0477
9.712976 83.533 -103.5202
9.783361 83.578 -103.9933
9.854255 83.624 -104.4670
9.925663 83.669 -104.9415
9.997588 83.713 -105.4169
10.070035 83.757 -105.8930
10.143007 83.801 -106.3697
10.216507 83.843 -106.8469
10.290540 83.886 -107.3242
10.365109 83.927 -107.8014
10.440219 83.968 -108.2780
10.515873 84.007 -108.7535
10.592076 84.046 -109.2273
10.668830 84.085 -109.6990
10.746141 84.122 -110.1680
10.824012 84.158 -110.6337
10.902447 84.194 -111.0956
10.981451 84.229 -111.5531
11.061027 84.264 -112.0058
11.141180 84.298 -112.4534
11.221913 84.332 -112.8957
11.303232 84.365 -113.3324
11.385140 84.398 -113.7635
11.467641 84.431 -114.1891
11.550741 84.464 -114.6095
11.634442 84.497 -115.0250
11.718750 84.531 -115.4362
11.803669 84.564 -115.8434
11.889203 84.598 -116.2475
11.975357 84.633 -116.6490
12.062136 84.667 -117.0489
12.149543 84.702 -117.4479
12.237583 84.738 -117.8468
12.326262 84.774 -118.2462
12.415583 84.810 -118.6470
12.505552 84.846 -119.0496
12.596172 84.882 -119.4545
12.687449 84.918 -119.8621
12.779387 84.954 -120.2726
12.871992 84.990 -120.6860
12.965268 85.025 -121.1022
13.059220 85.059 -121.5211
13.153852 85.093 -121.9421
13.249170 85.126 -122.3649
13.345179 85.158 -122.7887
13.441884 85.189 -123.2129
13.539289 85.219 -123.6367
13.637401 85.248 -124.0592
13.736223 85.275 -124.4795
13.835761 85.302 -124.8968
13.936021 85.328 -125.3103
14.037007 85.353 -125.7192
14.138725 85.378 -126.1229
14.241180 85.401 -126.5207
14.344377 85.425 -126.9124
14.448323 85.447 -127.2977
14.553021 85.470 -127.6767
14.658478 85.493 -128.0495
14.764700 85.516 -128.4166
14.871691 85.539 -128.7788
14.979457 85.563 -129.1369
15.088005 85.588 -129.4923
15.197339 85.613 -129.8460
15.307465 85.639 -130.1997
15.418389 85.666 -130.5548
15.530117 85.693 -130.9129
15.642655 85.721 -131.2752
15.756008 85.750 -131.6430
15.870182 85.778 -132.0172
15.985184 85.806 -132.3984
16.101019 85.834 -132.7868
16.217694 85.861 -133.1820
16.335214 85.888 -133.5832
16.453586 85.912 -133.9892
16.572815 85.936 -134.3984
16.692909 85.958 -134.8088
16.813872 85.978 -135.2183
16.935713 85.997 -135.6245
17.058436 86.014 -136.0254
17.182048 86.030 -136.4193
17.306556 86.046 -136.8046
17.431967 86.061 -137.1807
17.558286 86.076 -137.5475
17.685521 86.091 -137.9057
17.813677 86.108 -138.2567
17.942762 86.125 -138.6026
18.072783 86.144 -138.9460
18.203746 86.164 -139.2899
18.335658 86.186 -139.6371
18.468526 86.208 -139.9904
18.602356 86.231 -140.3518
18.737156 86.255 -140.7229
18.872934 86.278 -141.1040
19.009695 86.300 -141.4946
19.147447 86.320 -141.8931
19.286197 86.339 -142.2971
19.425953 86.356 -142.7035
19.566721 86.370 -143.1088
19.708510 86.382 -143.5094
19.851326 86.393 -143.9021
19.995177 86.402 -144.2843
20.140070 86.410 -144.6541
20.286013 86.418 -145.0109
20.433014 86.425 -145.3551
20.581080 86.433 -145.6882
20.730219 86.443 -146.0124
20.880439 86.453 -146.3306
21.031747 86.464 -146.6458
21.184152 86.477 -146.9609
21.337661 86.490 -147.2782
21.492282 86.503 -147.5993
21.648024 86.516 -147.9248
21.804895 86.529 -148.2545
21.962902 86.541 -148.5874
22.122054 86.553 -148.9221
22.282360 86.563 -149.2569
22.443827 86.572 -149.5905
22.606464 86.580 -149.9216
22.770280 86.588 -150.2499
22.935283 86.595 -150.5753
23.101481 86.602 -150.8985
23.268884 86.609 -151.2202
23.437500 86.615 -151.5412
23.607338 86.620 -151.8620
23.778406 86.625 -152.1820
23.950714 86.629 -152.5004
24.124271 86.632 -152.8153
24.299086 86.634 -153.1243
24.475167 86.636 -153.4251
24.652524 86.637 -153.7160
24.831166 86.638 -153.9962
25.011103 86.641 -154.2668
25.192344 86.646 -154.5308
25.374898 86.653 -154.7932
25.558775 86.663 -155.0602
25.743984 86.676 -155.3388
25.930536 86.690 -155.6352
26.118439 86.705 -155.9537
26.307704 86.720 -156.2953
26.498341 86.732 -156.6574
26.690359 86.740 -157.0328
26.883768 86.744 -157.4112
27.078579 86.744 -157.7799
27.274801 86.739 -158.1260
27.472446 86.733 -158.4390
27.671522 86.727 -158.7130
27.872042 86.724 -158.9493
28.074014 86.727 -159.1569
28.277450 86.737 -159.3524
28.482360 86.757 -159.5573
28.688755 86.784 -159.7948
28.896645 86.816 -160.0847
29.106042 86.849 -160.4396
29.316957 86.880 -160.8613
29.529400 86.902 -161.3403
29.743382 86.914 -161.8563
29.958915 86.913 -162.3818
30.176009 86.899 -162.8860
30.394677 86.874 -163.3407
30.614929 86.841 -163.7245
30.836778 86.806 -164.0280
31.060234 86.773 -164.2544
31.285309 86.745 -164.4197
31.512015 86.727 -164.5482
31.740364 86.717 -164.6663
31.970368 86.715 -164.7969
32.202039 86.718 -164.9556
32.435388 86.722 -165.1484
32.670428 86.727 -165.3727
32.907171 86.729 -165.6207
33.145630 86.729 -165.8832
33.385817 86.726 -166.1535
33.627745 86.723 -166.4287
33.871425 86.719 -166.7097
34.116871 86.714 -166.9988
34.364096 86.709 -167.2968
34.613113 86.702 -167.6017
34.863934 86.693 -167.9075
35.116572 86.682 -168.2071
35.371041 86.671 -168.4950
35.627354 86.662 -168.7706
35.885525 86.657 -169.0403
36.145566 86.656 -169.3161
36.407492 86.659 -169.6125
36.671316 86.664 -169.9405
36.937051 86.669 -170.3037
37.204712 86.671 -170.6953
37.474313 86.667 -171.0993
37.745867 86.657 -171.4945
38.019389 86.642 -171.8601
38.294893 86.624 -172.1815
38.572394 86.608 -172.4539
38.851905 86.594 -172.6824
39.133442 86.586 -172.8797
39.417019 86.583 -173.0609
39.702651 86.585 -173.2394
39.990353 86.591 -173.4238
40.280140 86.598 -173.6176
40.572026 86.605 -173.8203
40.866028 86.612 -174.0303
41.162160 86.619 -174.2458
41.460438 86.624 -174.4659
41.760877 86.626 -174.6893
42.063494 86.627 -174.9143
42.368303 86.625 -175.1382
42.675322 86.620 -175.3581
42.984565 86.613 -175.5720
43.296048 86.604 -175.7799
43.609789 86.595 -175.9837
43.925804 86.584 -176.1863
44.244108 86.572 -176.3904
44.564719 86.558 -176.5967
44.887654 86.544 -176.8036
45.212928 86.528 -177.0080
45.540560 86.511 -177.2066
45.870565 86.494 -177.3981
46.202962 86.479 -177.5836
46.537768 86.465 -177.7672
46.875000 86.455 -177.9546
47.214676 86.446 -178.1516
47.556813 86.439 -178.3624
47.901429 86.433 -178.5887
48.248542 86.427 -178.8297
48.598171 86.421 -179.0822
48.950334 86.413 -179.3422
49.305048 86.404 -179.6053
49.662333 86.394 -179.8678
50.022206 86.382 179.8734
50.384688 86.369 179.6202
50.749796 86.355 179.3742
51.117550 86.340 179.1367
51.487969 86.325 178.9084
51.861072 86.309 178.6889
52.236879 86.294 178.4764
52.615409 86.279 178.2676
52.996681 86.265 178.0589
53.380717 86.250 177.8478
53.767536 86.236 177.6339
54.157158 86.221 177.4191
54.549603 86.206 177.2056
54.944892 86.190 176.9945
55.343045 86.176 176.7844
55.744084 86.162 176.5726
56.148028 86.149 176.3569
56.554900 86.135 176.1379
56.964720 86.121 175.9185
57.377510 86.106 175.7022
57.793291 86.091 175.4915
58.212085 86.076 175.2869
58.633914 86.060 175.0886
59.058799 86.044 174.8975
59.486764 86.027 174.7153
59.917829 86.011 174.5422
60.352019 85.995 174.3754
60.789354 85.980 174.2091
61.229859 85.965 174.0369
61.673556 85.950 173.8546
62.120468 85.934 173.6621
62.570618 85.915 173.4633
63.024031 85.894 173.2642
63.480729 85.872 173.0707
63.940736 85.848 172.8864
64.404077 85.825 172.7107
64.870776 85.803 172.5394
65.340856 85.783 172.3664
65.814343 85.763 172.1872
66.291261 85.745 172.0011
66.771635 85.726 171.8111
67.255489 85.706 171.6208
67.742850 85.687 171.4327
68.233743 85.668 171.2470
68.728193 85.649 171.0638
69.226226 85.630 170.8836
69.727867 85.611 170.7072
70.233144 85.591 170.5344
70.742083 85.572 170.3636
71.254709 85.552 170.1938
71.771050 85.531 170.0259
72.291132 85.509 169.8616
72.814984 85.486 169.7020
73.342631 85.464 169.5462
73.874102 85.441 169.3922
74.409424 85.418 169.2387
74.948626 85.395 169.0859
75.491734 85.372 168.9341
76.038779 85.350 168.7829
76.589787 85.328 168.6312
77.144788 85.306 168.4782
77.703811 85.285 168.3238
78.266885 85.263 168.1687
78.834039 85.242 168.0135
79.405303 85.219 167.8579
79.980706 85.196 167.7023
80.560280 85.171 167.5483
81.144053 85.145 167.3996
81.732056 85.116 167.2598
82.324320 85.087 167.1294
82.920876 85.058 167.0056
83.521755 85.029 166.8839
84.126988 85.001 166.7603
84.736607 84.973 166.6329
85.350643 84.945 166.5021
85.969129 84.917 166.3700
86.592097 84.891 166.2384
87.219579 84.866 166.1071
87.851608 84.843 165.9734
88.488217 84.822 165.8350
89.129439 84.800 165.6921
89.775308 84.779 165.5478
90.425856 84.756 165.4055
91.081119 84.733 165.2672
91.741131 84.708 165.1327
92.405925 84.682 165.0016
93.075536 84.653 164.8743
