* Measurement data measured by REW V5.31.3
* Source: Headset (2- CX31993 HIFI AUDIO), MICROPHONE (Master Volume), R, volume: 0.400
* Format: 256k Log Swept Sine, 1 sweep at -12.0 dBFS with no timing reference
* Dated: 10 3, 24 8:03:51 AM
* REW Settings:
*  C-weighting compensation: Off
*  Target level: 75.0 dB
* Note: ; 
* Measurement: Moondrop Nekocake R
* Smoothing: 1/12 octave
* Frequency Step: 96 ppo
* Start Frequency: 0.36621094 Hz
*
* Freq(Hz) SPL(dB) Phase(degrees)
0.366211 43.803 108.2229
0.368865 43.823 108.0898
0.371538 43.852 107.8920
0.374230 43.888 107.6462
0.376942 43.929 107.3671
0.379673 43.973 107.0651
0.382424 44.018 106.7473
0.385196 44.065 106.4181
0.387987 44.113 106.0799
0.390798 44.161 105.7343
0.393630 44.209 105.3820
0.396483 44.258 105.0235
0.399356 44.307 104.6589
0.402250 44.357 104.2885
0.405165 44.407 103.9123
0.408101 44.458 103.5304
0.411058 44.508 103.1430
0.414037 44.560 102.7500
0.417037 44.611 102.3515
0.420059 44.663 101.9476
0.423103 44.715 101.5384
0.426169 44.768 101.1239
0.429257 44.821 100.7042
0.432368 44.874 100.2795
0.435501 44.928 99.8498
0.438656 44.982 99.4151
0.441835 45.037 98.9756
0.445037 45.092 98.5314
0.448262 45.147 98.0826
0.451510 45.203 97.6292
0.454782 45.259 97.1715
0.458077 45.316 96.7094
0.461397 45.373 96.2430
0.464740 45.430 95.7726
0.468108 45.488 95.2982
0.471500 45.546 94.8199
0.474917 45.605 94.3377
0.478358 45.664 93.8520
0.481825 45.724 93.3626
0.485316 45.784 92.8698
0.488833 45.844 92.3737
0.492375 45.905 91.8743
0.495943 45.966 91.3718
0.499537 46.028 90.8663
0.503157 46.090 90.3578
0.506803 46.153 89.8466
0.510475 46.216 89.3326
0.514175 46.279 88.8161
0.517900 46.344 88.2970
0.521653 46.408 87.7754
0.525434 46.473 87.2516
0.529241 46.538 86.7255
0.533076 46.604 86.1972
0.536939 46.671 85.6669
0.540830 46.737 85.1345
0.544749 46.805 84.6002
0.548696 46.873 84.0641
0.552673 46.941 83.5261
0.556677 47.010 82.9864
0.560711 47.079 82.4450
0.564774 47.149 81.9019
0.568867 47.219 81.3573
0.572989 47.290 80.8111
0.577141 47.361 80.2633
0.581324 47.433 79.7141
0.585536 47.505 79.1634
0.589779 47.578 78.6112
0.594053 47.652 78.0576
0.598358 47.726 77.5025
0.602694 47.800 76.9460
0.607061 47.875 76.3881
0.611460 47.951 75.8287
0.615891 48.027 75.2678
0.620354 48.104 74.7054
0.624849 48.181 74.1415
0.629377 48.259 73.5761
0.633938 48.337 73.0091
0.638532 48.416 72.4404
0.643159 48.495 71.8701
0.647819 48.576 71.2980
0.652514 48.656 70.7241
0.657242 48.737 70.1484
0.662005 48.819 69.5707
0.666802 48.902 68.9911
0.671634 48.985 68.4093
0.676501 49.068 67.8254
0.681403 49.153 67.2392
0.686341 49.237 66.6507
0.691314 49.323 66.0597
0.696324 49.409 65.4663
0.701370 49.496 64.8702
0.706452 49.583 64.2716
0.711571 49.671 63.6703
0.716728 49.760 63.0667
0.721921 49.850 62.4608
0.727153 49.941 61.8533
0.732422 50.033 61.2449
0.737729 50.127 60.6364
0.743075 50.221 60.0289
0.748460 50.317 59.4232
0.753883 50.414 58.8199
0.759346 50.512 58.2198
0.764849 50.612 57.6230
0.770391 50.712 57.0298
0.775974 50.813 56.4405
0.781597 50.916 55.8552
0.787261 51.020 55.2740
0.792966 51.124 54.6968
0.798712 51.230 54.1239
0.804500 51.337 53.5552
0.810329 51.445 52.9906
0.816201 51.554 52.4302
0.822116 51.663 51.8739
0.828073 51.774 51.3217
0.834074 51.886 50.7734
0.840118 51.999 50.2291
0.846206 52.113 49.6886
0.852338 52.227 49.1518
0.858514 52.343 48.6186
0.864735 52.460 48.0888
0.871001 52.577 47.5624
0.877313 52.695 47.0390
0.883670 52.815 46.5186
0.890074 52.935 46.0010
0.896524 53.055 45.4860
0.903020 53.177 44.9734
0.909564 53.299 44.4630
0.916155 53.422 43.9546
0.922794 53.546 43.4480
0.929481 53.671 42.9429
0.936216 53.796 42.4392
0.943000 53.921 41.9365
0.949834 54.048 41.4347
0.956717 54.174 40.9334
0.963649 54.302 40.4325
0.970632 54.429 39.9317
0.977666 54.558 39.4308
0.984750 54.686 38.9293
0.991886 54.815 38.4272
0.999074 54.944 37.9241
1.006314 55.074 37.4198
1.013606 55.203 36.9139
1.020951 55.333 36.4062
1.028349 55.463 35.8964
1.035801 55.593 35.3842
1.043307 55.723 34.8694
1.050867 55.853 34.3517
1.058482 55.983 33.8308
1.066152 56.112 33.3066
1.073878 56.242 32.7790
1.081660 56.371 32.2481
1.089498 56.500 31.7142
1.097393 56.629 31.1776
1.105345 56.758 30.6391
1.113355 56.886 30.0995
1.121423 57.015 29.5594
1.129549 57.144 29.0195
1.137734 57.273 28.4802
1.145979 57.402 27.9417
1.154283 57.531 27.4043
1.162647 57.661 26.8682
1.171072 57.790 26.3334
1.179558 57.920 25.7999
1.188106 58.050 25.2679
1.196715 58.180 24.7372
1.205387 58.310 24.2080
1.214122 58.440 23.6802
1.222920 58.571 23.1537
1.231782 58.701 22.6286
1.240708 58.832 22.1047
1.249699 58.963 21.5820
1.258754 59.093 21.0604
1.267876 59.224 20.5399
1.277063 59.356 20.0202
1.286318 59.487 19.5014
1.295639 59.618 18.9832
1.305027 59.750 18.4655
1.314484 59.881 17.9482
1.324009 60.013 17.4312
1.333604 60.145 16.9142
1.343268 60.277 16.3972
1.353002 60.409 15.8798
1.362806 60.541 15.3621
1.372681 60.673 14.8436
1.382628 60.806 14.3243
1.392647 60.938 13.8039
1.402739 61.070 13.2824
1.412904 61.203 12.7593
1.423142 61.336 12.2348
1.433455 61.469 11.7085
1.443843 61.601 11.1807
1.454305 61.734 10.6514
1.464844 61.867 10.1209
1.475459 62.000 9.5897
1.486150 62.132 9.0583
1.496920 62.265 8.5270
1.507767 62.397 7.9961
1.518693 62.529 7.4658
1.529698 62.660 6.9363
1.540783 62.792 6.4074
1.551948 62.923 5.8791
1.563194 63.054 5.3514
1.574521 63.184 4.8241
1.585931 63.315 4.2970
1.597423 63.445 3.7701
1.608999 63.575 3.2430
1.620658 63.704 2.7157
1.632402 63.834 2.1878
1.644232 63.963 1.6592
1.656146 64.092 1.1295
1.668147 64.221 0.5986
1.680235 64.350 0.0662
1.692411 64.478 -0.4681
1.704675 64.607 -1.0045
1.717028 64.735 -1.5434
1.729470 64.863 -2.0851
1.742003 64.991 -2.6299
1.754626 65.119 -3.1783
1.767341 65.247 -3.7304
1.780147 65.374 -4.2867
1.793047 65.502 -4.8475
1.806040 65.629 -5.4131
1.819128 65.757 -5.9836
1.832310 65.884 -6.5592
1.845587 66.010 -7.1397
1.858961 66.137 -7.7249
1.872432 66.263 -8.3145
1.886001 66.388 -8.9081
1.899667 66.513 -9.5052
1.913433 66.637 -10.1053
1.927299 66.761 -10.7082
1.941265 66.885 -11.3133
1.955332 67.007 -11.9204
1.969501 67.130 -12.5291
1.983773 67.252 -13.1392
1.998148 67.373 -13.7504
2.012627 67.494 -14.3626
2.027212 67.614 -14.9755
2.041902 67.734 -15.5890
2.056698 67.854 -16.2031
2.071602 67.973 -16.8177
2.086614 68.092 -17.4328
2.101734 68.211 -18.0485
2.116964 68.329 -18.6648
2.132304 68.447 -19.2820
2.147756 68.564 -19.9003
2.163320 68.682 -20.5201
2.178996 68.798 -21.1420
2.194786 68.915 -21.7665
2.210690 69.030 -22.3944
2.226710 69.146 -23.0261
2.242845 69.260 -23.6618
2.259098 69.374 -24.3017
2.275468 69.487 -24.9453
2.291957 69.599 -25.5924
2.308566 69.711 -26.2424
2.325295 69.822 -26.8948
2.342145 69.932 -27.5491
2.359117 70.042 -28.2048
2.376212 70.150 -28.8615
2.393431 70.258 -29.5186
2.410775 70.366 -30.1759
2.428244 70.473 -30.8328
2.445840 70.579 -31.4893
2.463564 70.685 -32.1449
2.481416 70.790 -32.7996
2.499397 70.895 -33.4535
2.517509 70.999 -34.1068
2.535752 71.103 -34.7599
2.554127 71.206 -35.4135
2.572635 71.308 -36.0686
2.591277 71.410 -36.7262
2.610055 71.510 -37.3868
2.628968 71.610 -38.0509
2.648019 71.709 -38.7183
2.667208 71.807 -39.3887
2.686535 71.905 -40.0618
2.706003 72.001 -40.7367
2.725612 72.096 -41.4130
2.745363 72.191 -42.0899
2.765257 72.285 -42.7667
2.785295 72.378 -43.4429
2.805478 72.471 -44.1178
2.825808 72.562 -44.7909
2.846285 72.654 -45.4619
2.866910 72.744 -46.1306
2.887685 72.834 -46.7972
2.908611 72.924 -47.4619
2.929688 73.012 -48.1257
2.950917 73.100 -48.7894
2.972301 73.187 -49.4541
2.993839 73.273 -50.1204
3.015534 73.358 -50.7884
3.037386 73.442 -51.4582
3.059396 73.526 -52.1292
3.081565 73.608 -52.8010
3.103896 73.689 -53.4728
3.126388 73.770 -54.1440
3.149043 73.850 -54.8139
3.171862 73.930 -55.4817
3.194847 74.008 -56.1468
3.217998 74.087 -56.8087
3.241317 74.164 -57.4673
3.264805 74.241 -58.1224
3.288463 74.318 -58.7746
3.312293 74.394 -59.4244
3.336295 74.469 -60.0727
3.360471 74.543 -60.7202
3.384822 74.616 -61.3672
3.409350 74.689 -62.0138
3.434056 74.761 -62.6600
3.458940 74.832 -63.3054
3.484005 74.903 -63.9497
3.509252 74.973 -64.5923
3.534681 75.042 -65.2327
3.560295 75.111 -65.8706
3.586094 75.179 -66.5056
3.612081 75.248 -67.1374
3.638255 75.315 -67.7660
3.664620 75.383 -68.3918
3.691175 75.450 -69.0150
3.717923 75.516 -69.6362
3.744864 75.582 -70.2558
3.772001 75.647 -70.8741
3.799335 75.712 -71.4911
3.826866 75.776 -72.1068
3.854597 75.840 -72.7212
3.882529 75.903 -73.3341
3.910664 75.966 -73.9453
3.939002 76.029 -74.5546
3.967546 76.092 -75.1621
3.996296 76.154 -75.7676
4.025255 76.216 -76.3712
4.054423 76.278 -76.9732
4.083804 76.340 -77.5738
4.113396 76.401 -78.1732
4.143204 76.462 -78.7717
4.173227 76.523 -79.3694
4.203468 76.583 -79.9666
4.233928 76.643 -80.5632
4.264609 76.703 -81.1593
4.295512 76.762 -81.7552
4.326639 76.821 -82.3509
4.357992 76.880 -82.9466
4.389572 76.938 -83.5424
4.421380 76.997 -84.1386
4.453419 77.055 -84.7353
4.485691 77.112 -85.3326
4.518196 77.170 -85.9306
4.550936 77.227 -86.5293
4.583914 77.283 -87.1286
4.617131 77.339 -87.7286
4.650589 77.395 -88.3292
4.684289 77.450 -88.9306
4.718233 77.505 -89.5329
4.752424 77.559 -90.1364
4.786862 77.612 -90.7413
4.821549 77.665 -91.3479
4.856488 77.717 -91.9561
4.891680 77.769 -92.5660
4.927127 77.820 -93.1772
4.962831 77.870 -93.7893
4.998794 77.920 -94.4021
5.035017 77.968 -95.0152
5.071503 78.016 -95.6285
5.108253 78.063 -96.2422
5.145270 78.109 -96.8565
5.182555 78.154 -97.4717
5.220110 78.198 -98.0878
5.257937 78.241 -98.7046
5.296038 78.283 -99.3218
5.334415 78.325 -99.9386
5.373071 78.365 -100.5543
5.412006 78.404 -101.1684
5.451224 78.441 -101.7805
5.490725 78.478 -102.3906
5.530514 78.514 -102.9988
5.570590 78.548 -103.6052
5.610957 78.582 -104.2098
5.651616 78.614 -104.8123
5.692570 78.645 -105.4121
5.733821 78.675 -106.0084
5.775370 78.704 -106.6004
5.817221 78.732 -107.1877
5.859375 78.759 -107.7700
5.901834 78.785 -108.3471
5.944602 78.809 -108.9193
5.987679 78.833 -109.4865
6.031068 78.856 -110.0485
6.074771 78.878 -110.6049
6.118792 78.900 -111.1553
6.163131 78.920 -111.6993
6.207792 78.940 -112.2364
6.252776 78.960 -112.7665
6.298086 78.978 -113.2896
6.343725 78.997 -113.8058
6.389694 79.015 -114.3153
6.435996 79.032 -114.8181
6.482634 79.049 -115.3143
6.529610 79.066 -115.8040
6.576926 79.083 -116.2870
6.624585 79.099 -116.7634
6.672590 79.116 -117.2333
6.720942 79.133 -117.6969
6.769645 79.149 -118.1545
6.818700 79.166 -118.6068
6.868111 79.183 -119.0542
6.917881 79.200 -119.4970
6.968010 79.217 -119.9355
7.018504 79.234 -120.3699
7.069362 79.252 -120.8005
7.120590 79.270 -121.2276
7.172189 79.288 -121.6518
7.224161 79.306 -122.0736
7.276511 79.325 -122.4936
7.329239 79.343 -122.9121
7.382350 79.362 -123.3294
7.435845 79.381 -123.7458
7.489729 79.400 -124.1613
7.544002 79.420 -124.5764
7.598669 79.439 -124.9914
7.653732 79.458 -125.4065
7.709194 79.477 -125.8220
7.765058 79.496 -126.2381
7.821327 79.515 -126.6546
7.878004 79.533 -127.0717
7.935091 79.551 -127.4892
7.992592 79.569 -127.9071
8.050510 79.586 -128.3255
8.108847 79.603 -128.7442
8.167607 79.619 -129.1632
8.226793 79.635 -129.5821
8.286408 79.650 -130.0008
8.346454 79.664 -130.4189
8.406936 79.678 -130.8361
8.467856 79.691 -131.2522
8.529218 79.703 -131.6668
8.591024 79.714 -132.0798
8.653278 79.725 -132.4906
8.715983 79.735 -132.8989
8.779143 79.744 -133.3042
8.842760 79.753 -133.7062
8.906839 79.760 -134.1045
8.971381 79.767 -134.4989
9.036392 79.773 -134.8889
9.101873 79.779 -135.2741
9.167829 79.784 -135.6542
9.234263 79.789 -136.0289
9.301178 79.793 -136.3981
9.368578 79.796 -136.7614
9.436467 79.799 -137.1189
9.504847 79.803 -137.4704
9.573723 79.805 -137.8158
9.643099 79.808 -138.1551
9.712976 79.811 -138.4886
9.783361 79.814 -138.8167
9.854255 79.817 -139.1395
9.925663 79.821 -139.4576
9.997588 79.825 -139.7714
10.070035 79.829 -140.0814
10.143007 79.834 -140.3886
10.216507 79.839 -140.6937
10.290540 79.845 -140.9976
10.365109 79.852 -141.3010
10.440219 79.859 -141.6049
10.515873 79.867 -141.9101
10.592076 79.874 -142.2175
10.668830 79.883 -142.5280
10.746141 79.891 -142.8422
10.824012 79.899 -143.1604
10.902447 79.908 -143.4832
10.981451 79.916 -143.8107
11.061027 79.923 -144.1429
11.141180 79.930 -144.4797
11.221913 79.935 -144.8203
11.303232 79.940 -145.1640
11.385140 79.944 -145.5099
11.467641 79.946 -145.8569
11.550741 79.946 -146.2036
11.634442 79.945 -146.5485
11.718750 79.943 -146.8899
11.803669 79.939 -147.2262
11.889203 79.933 -147.5558
11.975357 79.927 -147.8772
12.062136 79.919 -148.1888
12.149543 79.911 -148.4895
12.237583 79.902 -148.7785
12.326262 79.893 -149.0553
12.415583 79.884 -149.3197
12.505552 79.875 -149.5718
12.596172 79.867 -149.8124
12.687449 79.861 -150.0427
12.779387 79.855 -150.2642
12.871992 79.852 -150.4786
12.965268 79.850 -150.6880
13.059220 79.850 -150.8946
13.153852 79.852 -151.1007
13.249170 79.855 -151.3085
13.345179 79.860 -151.5198
13.441884 79.867 -151.7363
13.539289 79.875 -151.9593
13.637401 79.883 -152.1897
13.736223 79.892 -152.4277
13.835761 79.901 -152.6734
13.936021 79.910 -152.9261
14.037007 79.919 -153.1851
14.138725 79.927 -153.4492
14.241180 79.935 -153.7173
14.344377 79.942 -153.9881
14.448323 79.949 -154.2607
14.553021 79.956 -154.5342
14.658478 79.962 -154.8082
14.764700 79.968 -155.0828
14.871691 79.974 -155.3585
14.979457 79.981 -155.6360
15.088005 79.987 -155.9166
15.197339 79.994 -156.2016
15.307465 80.001 -156.4922
15.418389 80.007 -156.7896
15.530117 80.012 -157.0943
15.642655 80.016 -157.4062
15.756008 80.018 -157.7243
15.870182 80.019 -158.0467
15.985184 80.016 -158.3705
16.101019 80.010 -158.6915
16.217694 80.001 -159.0051
16.335214 79.988 -159.3060
16.453586 79.973 -159.5883
16.572815 79.954 -159.8468
16.692909 79.934 -160.0766
16.813872 79.913 -160.2742
16.935713 79.892 -160.4375
17.058436 79.872 -160.5668
17.182048 79.856 -160.6646
17.306556 79.843 -160.7356
17.431967 79.835 -160.7868
17.558286 79.833 -160.8271
17.685521 79.836 -160.8661
17.813677 79.845 -160.9137
17.942762 79.859 -160.9789
18.072783 79.875 -161.0690
18.203746 79.894 -161.1885
18.335658 79.913 -161.3390
18.468526 79.930 -161.5188
18.602356 79.944 -161.7228
18.737156 79.953 -161.9434
18.872934 79.958 -162.1709
19.009695 79.958 -162.3949
19.147447 79.953 -162.6051
19.286197 79.944 -162.7927
19.425953 79.933 -162.9517
19.566721 79.922 -163.0797
19.708510 79.913 -163.1785
19.851326 79.906 -163.2544
19.995177 79.903 -163.3170
20.140070 79.906 -163.3777
20.286013 79.912 -163.4480
20.433014 79.922 -163.5381
20.581080 79.935 -163.6558
20.730219 79.946 -163.8049
20.880439 79.955 -163.9841
21.031747 79.960 -164.1863
21.184152 79.959 -164.3999
21.337661 79.951 -164.6098
21.492282 79.938 -164.8005
21.648024 79.919 -164.9574
21.804895 79.899 -165.0703
21.962902 79.880 -165.1354
22.122054 79.865 -165.1566
22.282360 79.857 -165.1460
22.443827 79.858 -165.1228
22.606464 79.870 -165.1108
22.770280 79.891 -165.1341
22.935283 79.919 -165.2137
23.101481 79.950 -165.3633
23.268884 79.980 -165.5869
23.437500 80.005 -165.8778
23.607338 80.021 -166.2199
23.778406 80.026 -166.5892
23.950714 80.019 -166.9581
24.124271 80.002 -167.2992
24.299086 79.977 -167.5900
24.475167 79.948 -167.8163
24.652524 79.921 -167.9756
24.831166 79.900 -168.0773
25.011103 79.888 -168.1418
25.192344 79.887 -168.1960
25.374898 79.896 -168.2682
25.558775 79.912 -168.3823
25.743984 79.933 -168.5524
25.930536 79.953 -168.7810
26.118439 79.969 -169.0583
26.307704 79.977 -169.3656
26.498341 79.977 -169.6793
26.690359 79.970 -169.9760
26.883768 79.958 -170.2374
27.078579 79.944 -170.4546
27.274801 79.931 -170.6287
27.472446 79.923 -170.7707
27.671522 79.921 -170.8976
27.872042 79.924 -171.0274
28.074014 79.930 -171.1743
28.277450 79.938 -171.3446
28.482360 79.943 -171.5355
28.688755 79.944 -171.7359
28.896645 79.941 -171.9303
29.106042 79.933 -172.1030
29.316957 79.924 -172.2428
29.529400 79.914 -172.3463
29.743382 79.908 -172.4187
29.958915 79.906 -172.4721
30.176009 79.909 -172.5225
30.394677 79.917 -172.5847
30.614929 79.926 -172.6685
30.836778 79.935 -172.7766
31.060234 79.942 -172.9044
31.285309 79.945 -173.0424
31.512015 79.944 -173.1790
31.740364 79.940 -173.3036
31.970368 79.934 -173.4098
32.202039 79.928 -173.4955
32.435388 79.923 -173.5633
32.670428 79.920 -173.6187
32.907171 79.920 -173.6690
33.145630 79.922 -173.7216
33.385817 79.928 -173.7838
33.627745 79.935 -173.8620
33.871425 79.944 -173.9621
34.116871 79.954 -174.0879
34.364096 79.963 -174.2411
34.613113 79.970 -174.4193
34.863934 79.974 -174.6160
35.116572 79.973 -174.8210
35.371041 79.969 -175.0225
35.627354 79.961 -175.2096
35.885525 79.953 -175.3760
36.145566 79.945 -175.5216
36.407492 79.941 -175.6526
36.671316 79.940 -175.7799
36.937051 79.943 -175.9157
37.204712 79.948 -176.0696
37.474313 79.954 -176.2464
37.745867 79.960 -176.4454
38.019389 79.964 -176.6617
38.294893 79.966 -176.8889
38.572394 79.966 -177.1211
38.851905 79.964 -177.3544
39.133442 79.959 -177.5863
39.417019 79.953 -177.8145
39.702651 79.943 -178.0348
39.990353 79.931 -178.2405
40.280140 79.917 -178.4233
40.572026 79.902 -178.5755
40.866028 79.887 -178.6929
41.162160 79.875 -178.7775
41.460438 79.867 -178.8384
41.760877 79.866 -178.8907
42.063494 79.871 -178.9518
42.368303 79.880 -179.0378
42.675322 79.891 -179.1589
42.984565 79.902 -179.3175
43.296048 79.910 -179.5071
43.609789 79.912 -179.7141
43.925804 79.909 -179.9205
44.244108 79.901 179.8920
44.564719 79.891 179.7368
44.887654 79.881 179.6187
45.212928 79.874 179.5307
45.540560 79.873 179.4551
45.870565 79.879 179.3682
46.202962 79.890 179.2470
46.537768 79.902 179.0781
46.875000 79.912 178.8617
47.214676 79.917 178.6113
47.556813 79.915 178.3477
47.901429 79.907 178.0908
48.248542 79.895 177.8518
48.598171 79.882 177.6318
48.950334 79.869 177.4239
49.305048 79.856 177.2201
49.662333 79.842 177.0161
50.022206 79.827 176.8132
50.384688 79.811 176.6160
50.749796 79.794 176.4281
51.117550 79.776 176.2502
51.487969 79.758 176.0804
51.861072 79.740 175.9180
52.236879 79.720 175.7657
52.615409 79.700 175.6298
52.996681 79.679 175.5165
53.380717 79.660 175.4282
53.767536 79.642 175.3602
54.157158 79.628 175.3025
54.549603 79.617 175.2435
54.944892 79.607 175.1759
55.343045 79.596 175.0996
55.744084 79.582 175.0228
56.148028 79.565 174.9594
56.554900 79.546 174.9246
56.964720 79.526 174.9293
57.377510 79.509 174.9753
57.793291 79.497 175.0518
58.212085 79.493 175.1366
58.633914 79.497 175.2020
59.058799 79.507 175.2238
59.486764 79.519 175.1890
59.917829 79.529 175.0990
60.352019 79.535 174.9678
60.789354 79.536 174.8176
61.229859 79.532 174.6732
61.673556 79.526 174.5519
62.120468 79.526 174.4523
62.570618 79.534 174.3460
63.024031 79.552 174.1840
63.480729 79.575 173.9198
63.940736 79.595 173.5375
64.404077 79.601 173.0635
64.870776 79.591 172.5540
65.340856 79.566 172.0664
65.814343 79.532 171.6341
66.291261 79.495 171.2600
66.771635 79.460 170.9271
67.255489 79.427 170.6150
67.742850 79.395 170.3134
68.233743 79.363 170.0264
68.728193 79.330 169.7695
69.226226 79.298 169.5585
69.727867 79.269 169.3964
70.233144 79.248 169.2669
70.742083 79.234 169.1429
71.254709 79.225 169.0039
71.771050 79.217 168.8475
72.291132 79.206 168.6867
72.814984 79.193 168.5372
73.342631 79.179 168.4073
73.874102 79.165 168.2945
74.409424 79.151 168.1882
74.948626 79.139 168.0736
75.491734 79.127 167.9372
76.038779 79.112 167.7735
76.589787 79.092 167.5891
77.144788 79.067 167.4011
77.703811 79.038 167.2280
78.266885 79.007 167.0806
78.834039 78.977 166.9570
79.405303 78.950 166.8474
79.980706 78.926 166.7418
80.560280 78.903 166.6353
81.144053 78.880 166.5273
81.732056 78.858 166.4189
82.324320 78.834 166.3098
82.920876 78.809 166.1979
83.521755 78.782 166.0779
84.126988 78.753 165.9418
84.736607 78.722 165.7834
85.350643 78.686 165.6039
85.969129 78.646 165.4128
86.592097 78.604 165.2231
87.219579 78.561 165.0434
87.851608 78.521 164.8737
88.488217 78.485 164.7066
89.129439 78.454 164.5336
89.775308 78.425 164.3506
90.425856 78.396 164.1630
91.081119 78.363 163.9887
