* Measurement data measured by REW V5.31.3
* Source: Headset (2- CX31993 HIFI AUDIO), MICROPHONE (Master Volume), R, volume: 0.250
* Format: 256k Log Swept Sine, 1 sweep at -12.0 dBFS with no timing reference
* Dated: 11 9, 24 11:50:59 AM
* REW Settings:
*  C-weighting compensation: Off
*  Target level: 75.0 dB
* Note: ; 
* Measurement: Moondrop Kadenz Origin R
* Smoothing: 1/12 octave
* Frequency Step: 96 ppo
* Start Frequency: 0.36621094 Hz
*
* Freq(Hz) SPL(dB) Phase(degrees)
0.366211 40.168 26.9644
0.368865 40.201 26.9950
0.371538 40.248 27.0408
0.374230 40.307 27.0984
0.376942 40.373 27.1648
0.379673 40.443 27.2377
0.382424 40.517 27.3158
0.385196 40.592 27.3981
0.387987 40.668 27.4841
0.390798 40.746 27.5734
0.393630 40.824 27.6658
0.396483 40.903 27.7611
0.399356 40.982 27.8592
0.402250 41.062 27.9600
0.405165 41.143 28.0633
0.408101 41.224 28.1691
0.411058 41.306 28.2773
0.414037 41.388 28.3877
0.417037 41.471 28.5003
0.420059 41.555 28.6149
0.423103 41.639 28.7313
0.426169 41.724 28.8496
0.429257 41.809 28.9695
0.432368 41.895 29.0910
0.435501 41.982 29.2139
0.438656 42.069 29.3381
0.441835 42.157 29.4635
0.445037 42.246 29.5899
0.448262 42.335 29.7172
0.451510 42.425 29.8453
0.454782 42.516 29.9740
0.458077 42.607 30.1031
0.461397 42.699 30.2326
0.464740 42.791 30.3623
0.468108 42.884 30.4921
0.471500 42.978 30.6218
0.474917 43.073 30.7512
0.478358 43.168 30.8803
0.481825 43.264 31.0088
0.485316 43.361 31.1366
0.488833 43.458 31.2636
0.492375 43.556 31.3896
0.495943 43.655 31.5145
0.499537 43.754 31.6380
0.503157 43.854 31.7602
0.506803 43.955 31.8807
0.510475 44.057 31.9994
0.514175 44.159 32.1163
0.517900 44.262 32.2311
0.521653 44.366 32.3437
0.525434 44.471 32.4539
0.529241 44.576 32.5616
0.533076 44.682 32.6667
0.536939 44.789 32.7689
0.540830 44.897 32.8682
0.544749 45.005 32.9644
0.548696 45.115 33.0574
0.552673 45.225 33.1470
0.556677 45.336 33.2330
0.560711 45.447 33.3154
0.564774 45.560 33.3941
0.568867 45.673 33.4688
0.572989 45.787 33.5394
0.577141 45.902 33.6059
0.581324 46.018 33.6680
0.585536 46.134 33.7258
0.589779 46.252 33.7790
0.594053 46.370 33.8275
0.598358 46.489 33.8713
0.602694 46.609 33.9102
0.607061 46.730 33.9441
0.611460 46.852 33.9730
0.615891 46.975 33.9967
0.620354 47.098 34.0151
0.624849 47.223 34.0281
0.629377 47.348 34.0358
0.633938 47.474 34.0378
0.638532 47.602 34.0344
0.643159 47.730 34.0252
0.647819 47.859 34.0103
0.652514 47.989 33.9896
0.657242 48.120 33.9630
0.662005 48.251 33.9306
0.666802 48.384 33.8921
0.671634 48.518 33.8477
0.676501 48.653 33.7972
0.681403 48.788 33.7407
0.686341 48.925 33.6780
0.691314 49.063 33.6093
0.696324 49.201 33.5345
0.701370 49.341 33.4538
0.706452 49.481 33.3672
0.711571 49.621 33.2750
0.716728 49.762 33.1777
0.721921 49.903 33.0761
0.727153 50.043 32.9713
0.732422 50.182 32.8645
0.737729 50.320 32.7576
0.743075 50.457 32.6519
0.748460 50.593 32.5488
0.753883 50.729 32.4489
0.759346 50.865 32.3525
0.764849 51.001 32.2597
0.770391 51.138 32.1703
0.775974 51.275 32.0840
0.781597 51.412 32.0006
0.787261 51.550 31.9197
0.792966 51.689 31.8409
0.798712 51.828 31.7639
0.804500 51.968 31.6882
0.810329 52.109 31.6135
0.816201 52.249 31.5394
0.822116 52.391 31.4657
0.828073 52.533 31.3919
0.834074 52.675 31.3177
0.840118 52.819 31.2427
0.846206 52.962 31.1668
0.852338 53.106 31.0894
0.858514 53.251 31.0104
0.864735 53.396 30.9294
0.871001 53.541 30.8462
0.877313 53.687 30.7604
0.883670 53.834 30.6719
0.890074 53.981 30.5802
0.896524 54.128 30.4851
0.903020 54.276 30.3865
0.909564 54.425 30.2839
0.916155 54.573 30.1773
0.922794 54.723 30.0663
0.929481 54.872 29.9507
0.936216 55.022 29.8303
0.943000 55.172 29.7049
0.949834 55.323 29.5742
0.956717 55.474 29.4381
0.963649 55.626 29.2963
0.970632 55.778 29.1487
0.977666 55.930 28.9949
0.984750 56.082 28.8350
0.991886 56.235 28.6686
0.999074 56.388 28.4955
1.006314 56.541 28.3158
1.013606 56.695 28.1290
1.020951 56.848 27.9351
1.028349 57.002 27.7340
1.035801 57.157 27.5255
1.043307 57.311 27.3095
1.050867 57.466 27.0859
1.058482 57.620 26.8547
1.066152 57.775 26.6161
1.073878 57.930 26.3704
1.081660 58.085 26.1180
1.089498 58.240 25.8600
1.097393 58.395 25.5974
1.105345 58.550 25.3319
1.113355 58.705 25.0649
1.121423 58.860 24.7978
1.129549 59.015 24.5312
1.137734 59.169 24.2658
1.145979 59.324 24.0016
1.154283 59.478 23.7386
1.162647 59.632 23.4768
1.171072 59.786 23.2159
1.179558 59.940 22.9557
1.188106 60.094 22.6960
1.196715 60.248 22.4364
1.205387 60.401 22.1767
1.214122 60.555 21.9165
1.222920 60.708 21.6558
1.231782 60.861 21.3940
1.240708 61.014 21.1311
1.249699 61.167 20.8667
1.258754 61.320 20.6005
1.267876 61.473 20.3323
1.277063 61.626 20.0617
1.286318 61.779 19.7887
1.295639 61.932 19.5127
1.305027 62.084 19.2337
1.314484 62.237 18.9513
1.324009 62.390 18.6653
1.333604 62.543 18.3754
1.343268 62.695 18.0814
1.353002 62.848 17.7829
1.362806 63.001 17.4798
1.372681 63.154 17.1718
1.382628 63.307 16.8586
1.392647 63.460 16.5400
1.402739 63.614 16.2159
1.412904 63.767 15.8861
1.423142 63.921 15.5505
1.433455 64.075 15.2094
1.443843 64.229 14.8629
1.454305 64.383 14.5117
1.464844 64.537 14.1569
1.475459 64.691 13.7993
1.486150 64.844 13.4403
1.496920 64.998 13.0806
1.507767 65.151 12.7208
1.518693 65.303 12.3611
1.529698 65.455 12.0016
1.540783 65.607 11.6422
1.551948 65.758 11.2827
1.563194 65.909 10.9227
1.574521 66.059 10.5621
1.585931 66.209 10.2005
1.597423 66.359 9.8375
1.608999 66.508 9.4729
1.620658 66.657 9.1063
1.632402 66.806 8.7373
1.644232 66.954 8.3656
1.656146 67.102 7.9909
1.668147 67.250 7.6128
1.680235 67.397 7.2309
1.692411 67.544 6.8450
1.704675 67.691 6.4546
1.717028 67.838 6.0593
1.729470 67.984 5.6589
1.742003 68.131 5.2530
1.754626 68.277 4.8412
1.767341 68.424 4.4233
1.780147 68.570 3.9990
1.793047 68.716 3.5682
1.806040 68.862 3.1309
1.819128 69.008 2.6872
1.832310 69.153 2.2377
1.845587 69.299 1.7829
1.858961 69.443 1.3236
1.872432 69.588 0.8603
1.886001 69.731 0.3938
1.899667 69.874 -0.0757
1.913433 70.017 -0.5478
1.927299 70.159 -1.0222
1.941265 70.300 -1.4988
1.955332 70.440 -1.9774
1.969501 70.580 -2.4580
1.983773 70.720 -2.9405
1.998148 70.858 -3.4249
2.012627 70.997 -3.9112
2.027212 71.135 -4.3995
2.041902 71.272 -4.8898
2.056698 71.409 -5.3822
2.071602 71.545 -5.8768
2.086614 71.681 -6.3739
2.101734 71.817 -6.8735
2.116964 71.952 -7.3758
2.132304 72.087 -7.8812
2.147756 72.222 -8.3899
2.163320 72.356 -8.9021
2.178996 72.490 -9.4181
2.194786 72.624 -9.9382
2.210690 72.757 -10.4625
2.226710 72.889 -10.9910
2.242845 73.021 -11.5236
2.259098 73.151 -12.0600
2.275468 73.281 -12.6000
2.291957 73.411 -13.1432
2.308566 73.539 -13.6892
2.325295 73.667 -14.2376
2.342145 73.793 -14.7881
2.359117 73.920 -15.3403
2.376212 74.045 -15.8941
2.393431 74.170 -16.4491
2.410775 74.294 -17.0052
2.428244 74.417 -17.5622
2.445840 74.540 -18.1199
2.463564 74.662 -18.6784
2.481416 74.784 -19.2376
2.499397 74.905 -19.7978
2.517509 75.025 -20.3590
2.535752 75.145 -20.9218
2.554127 75.265 -21.4866
2.572635 75.384 -22.0540
2.591277 75.501 -22.6246
2.610055 75.619 -23.1989
2.628968 75.735 -23.7767
2.648019 75.850 -24.3580
2.667208 75.964 -24.9424
2.686535 76.077 -25.5294
2.706003 76.190 -26.1184
2.725612 76.301 -26.7090
2.745363 76.412 -27.3005
2.765257 76.522 -27.8925
2.785295 76.631 -28.4844
2.805478 76.739 -29.0759
2.825808 76.846 -29.6665
2.846285 76.953 -30.2560
2.866910 77.060 -30.8444
2.887685 77.165 -31.4319
2.908611 77.270 -32.0188
2.929688 77.374 -32.6059
2.950917 77.477 -33.1939
2.972301 77.580 -33.7835
2.993839 77.681 -34.3753
3.015534 77.781 -34.9693
3.037386 77.880 -35.5652
3.059396 77.979 -36.1625
3.081565 78.076 -36.7609
3.103896 78.172 -37.3594
3.126388 78.268 -37.9576
3.149043 78.362 -38.5546
3.171862 78.456 -39.1500
3.194847 78.550 -39.7430
3.217998 78.642 -40.3334
3.241317 78.734 -40.9210
3.264805 78.825 -41.5058
3.288463 78.915 -42.0884
3.312293 79.005 -42.6693
3.336295 79.093 -43.2495
3.360471 79.181 -43.8294
3.384822 79.268 -44.4093
3.409350 79.354 -44.9891
3.434056 79.439 -45.5686
3.458940 79.523 -46.1474
3.484005 79.606 -46.7247
3.509252 79.688 -47.3000
3.534681 79.770 -47.8727
3.560295 79.851 -48.4422
3.586094 79.931 -49.0082
3.612081 80.011 -49.5702
3.638255 80.091 -50.1285
3.664620 80.170 -50.6832
3.691175 80.248 -51.2349
3.717923 80.325 -51.7841
3.744864 80.402 -52.3312
3.772001 80.478 -52.8764
3.799335 80.553 -53.4196
3.826866 80.628 -53.9606
3.854597 80.701 -54.4991
3.882529 80.775 -55.0348
3.910664 80.848 -55.5672
3.939002 80.920 -56.0960
3.967546 80.993 -56.6209
3.996296 81.065 -57.1418
4.025255 81.136 -57.6586
4.054423 81.208 -58.1717
4.083804 81.279 -58.6814
4.113396 81.349 -59.1878
4.143204 81.419 -59.6913
4.173227 81.489 -60.1920
4.203468 81.558 -60.6899
4.233928 81.627 -61.1852
4.264609 81.696 -61.6776
4.295512 81.764 -62.1673
4.326639 81.833 -62.6542
4.357992 81.902 -63.1381
4.389572 81.970 -63.6192
4.421380 82.038 -64.0974
4.453419 82.107 -64.5728
4.485691 82.175 -65.0457
4.518196 82.243 -65.5162
4.550936 82.311 -65.9846
4.583914 82.379 -66.4512
4.617131 82.446 -66.9163
4.650589 82.514 -67.3799
4.684289 82.582 -67.8424
4.718233 82.650 -68.3039
4.752424 82.718 -68.7643
4.786862 82.786 -69.2239
4.821549 82.854 -69.6825
4.856488 82.922 -70.1403
4.891680 82.990 -70.5975
4.927127 83.058 -71.0544
4.962831 83.127 -71.5111
4.998794 83.195 -71.9681
5.035017 83.263 -72.4256
5.071503 83.331 -72.8839
5.108253 83.399 -73.3431
5.145270 83.467 -73.8034
5.182555 83.535 -74.2648
5.220110 83.603 -74.7274
5.257937 83.671 -75.1912
5.296038 83.739 -75.6564
5.334415 83.807 -76.1231
5.373071 83.874 -76.5914
5.412006 83.942 -77.0615
5.451224 84.009 -77.5337
5.490725 84.076 -78.0081
5.530514 84.143 -78.4848
5.570590 84.209 -78.9639
5.610957 84.275 -79.4454
5.651616 84.341 -79.9291
5.692570 84.407 -80.4151
5.733821 84.472 -80.9033
5.775370 84.536 -81.3937
5.817221 84.601 -81.8862
5.859375 84.664 -82.3812
5.901834 84.728 -82.8785
5.944602 84.790 -83.3783
5.987679 84.853 -83.8805
6.031068 84.914 -84.3849
6.074771 84.975 -84.8913
6.118792 85.036 -85.3995
6.163131 85.095 -85.9092
6.207792 85.154 -86.4206
6.252776 85.213 -86.9335
6.298086 85.270 -87.4480
6.343725 85.327 -87.9641
6.389694 85.384 -88.4816
6.435996 85.439 -89.0002
6.482634 85.494 -89.5195
6.529610 85.547 -90.0393
6.576926 85.601 -90.5593
6.624585 85.653 -91.0797
6.672590 85.704 -91.6004
6.720942 85.755 -92.1212
6.769645 85.805 -92.6421
6.818700 85.854 -93.1626
6.868111 85.902 -93.6824
6.917881 85.950 -94.2014
6.968010 85.997 -94.7193
7.018504 86.043 -95.2360
7.069362 86.088 -95.7517
7.120590 86.132 -96.2661
7.172189 86.176 -96.7791
7.224161 86.219 -97.2903
7.276511 86.262 -97.7996
7.329239 86.303 -98.3068
7.382350 86.344 -98.8118
7.435845 86.385 -99.3147
7.489729 86.425 -99.8154
7.544002 86.464 -100.3139
7.598669 86.503 -100.8099
7.653732 86.541 -101.3034
7.709194 86.579 -101.7943
7.765058 86.616 -102.2826
7.821327 86.653 -102.7684
7.878004 86.689 -103.2517
7.935091 86.725 -103.7325
7.992592 86.761 -104.2108
8.050510 86.796 -104.6866
8.108847 86.831 -105.1600
8.167607 86.866 -105.6310
8.226793 86.900 -106.0997
8.286408 86.935 -106.5663
8.346454 86.969 -107.0306
8.406936 87.002 -107.4930
8.467856 87.036 -107.9533
8.529218 87.069 -108.4117
8.591024 87.102 -108.8683
8.653278 87.135 -109.3230
8.715983 87.168 -109.7761
8.779143 87.200 -110.2274
8.842760 87.233 -110.6770
8.906839 87.265 -111.1251
8.971381 87.297 -111.5715
9.036392 87.328 -112.0163
9.101873 87.360 -112.4594
9.167829 87.391 -112.9009
9.234263 87.422 -113.3408
9.301178 87.453 -113.7789
9.368578 87.484 -114.2154
9.436467 87.515 -114.6500
9.504847 87.545 -115.0829
9.573723 87.576 -115.5140
9.643099 87.606 -115.9433
9.712976 87.636 -116.3708
9.783361 87.666 -116.7966
9.854255 87.696 -117.2206
9.925663 87.727 -117.6430
9.997588 87.757 -118.0638
10.070035 87.787 -118.4832
10.143007 87.817 -118.9013
10.216507 87.847 -119.3182
10.290540 87.877 -119.7341
10.365109 87.907 -120.1493
10.440219 87.938 -120.5637
10.515873 87.968 -120.9778
10.592076 87.998 -121.3916
10.668830 88.028 -121.8053
10.746141 88.059 -122.2191
10.824012 88.089 -122.6330
10.902447 88.119 -123.0471
10.981451 88.149 -123.4614
11.061027 88.178 -123.8759
11.141180 88.208 -124.2905
11.221913 88.237 -124.7051
11.303232 88.266 -125.1195
11.385140 88.294 -125.5334
11.467641 88.322 -125.9465
11.550741 88.349 -126.3587
11.634442 88.377 -126.7695
11.718750 88.403 -127.1785
11.803669 88.430 -127.5855
11.889203 88.456 -127.9902
11.975357 88.481 -128.3923
12.062136 88.506 -128.7916
12.149543 88.531 -129.1879
12.237583 88.556 -129.5811
12.326262 88.581 -129.9713
12.415583 88.605 -130.3587
12.505552 88.630 -130.7433
12.596172 88.654 -131.1254
12.687449 88.679 -131.5053
12.779387 88.703 -131.8835
12.871992 88.728 -132.2604
12.965268 88.752 -132.6363
13.059220 88.776 -133.0116
13.153852 88.801 -133.3866
13.249170 88.825 -133.7618
13.345179 88.849 -134.1371
13.441884 88.873 -134.5128
13.539289 88.896 -134.8887
13.637401 88.919 -135.2649
13.736223 88.941 -135.6410
13.835761 88.963 -136.0167
13.936021 88.984 -136.3917
14.037007 89.004 -136.7656
14.138725 89.024 -137.1379
14.241180 89.043 -137.5083
14.344377 89.061 -137.8763
14.448323 89.079 -138.2419
14.553021 89.096 -138.6048
14.658478 89.113 -138.9649
14.764700 89.129 -139.3224
14.871691 89.145 -139.6775
14.979457 89.161 -140.0304
15.088005 89.176 -140.3814
15.197339 89.191 -140.7308
15.307465 89.205 -141.0789
15.418389 89.219 -141.4258
15.530117 89.232 -141.7717
15.642655 89.245 -142.1164
15.756008 89.257 -142.4597
15.870182 89.268 -142.8011
15.985184 89.279 -143.1400
16.101019 89.289 -143.4759
16.217694 89.298 -143.8079
16.335214 89.306 -144.1354
16.453586 89.314 -144.4579
16.572815 89.321 -144.7751
16.692909 89.328 -145.0867
16.813872 89.336 -145.3932
16.935713 89.343 -145.6949
17.058436 89.351 -145.9930
17.182048 89.359 -146.2885
17.306556 89.368 -146.5829
17.431967 89.378 -146.8777
17.558286 89.388 -147.1744
17.685521 89.398 -147.4743
17.813677 89.409 -147.7786
17.942762 89.419 -148.0878
18.072783 89.430 -148.4022
18.203746 89.439 -148.7212
18.335658 89.448 -149.0440
18.468526 89.456 -149.3693
18.602356 89.463 -149.6956
18.737156 89.468 -150.0209
18.872934 89.473 -150.3434
19.009695 89.476 -150.6617
19.147447 89.480 -150.9743
19.286197 89.482 -151.2806
19.425953 89.485 -151.5803
19.566721 89.488 -151.8737
19.708510 89.492 -152.1617
19.851326 89.497 -152.4455
19.995177 89.502 -152.7268
20.140070 89.509 -153.0072
20.286013 89.516 -153.2883
20.433014 89.524 -153.5717
20.581080 89.533 -153.8585
20.730219 89.543 -154.1494
20.880439 89.553 -154.4451
21.031747 89.563 -154.7457
21.184152 89.573 -155.0511
21.337661 89.583 -155.3613
21.492282 89.593 -155.6760
21.648024 89.603 -155.9950
21.804895 89.612 -156.3179
21.962902 89.620 -156.6445
22.122054 89.628 -156.9742
22.282360 89.635 -157.3062
22.443827 89.640 -157.6392
22.606464 89.645 -157.9718
22.770280 89.648 -158.3020
22.935283 89.650 -158.6277
23.101481 89.651 -158.9468
23.268884 89.651 -159.2573
23.437500 89.650 -159.5577
23.607338 89.649 -159.8474
23.778406 89.649 -160.1267
23.950714 89.649 -160.3969
24.124271 89.650 -160.6602
24.299086 89.653 -160.9196
24.475167 89.657 -161.1785
24.652524 89.662 -161.4401
24.831166 89.668 -161.7072
25.011103 89.674 -161.9814
25.192344 89.680 -162.2634
25.374898 89.686 -162.5525
25.558775 89.690 -162.8468
25.743984 89.692 -163.1436
25.930536 89.693 -163.4397
26.118439 89.693 -163.7319
26.307704 89.691 -164.0176
26.498341 89.689 -164.2953
26.690359 89.686 -164.5646
26.883768 89.684 -164.8263
27.078579 89.682 -165.0826
27.274801 89.682 -165.3361
27.472446 89.682 -165.5899
27.671522 89.682 -165.8469
27.872042 89.683 -166.1089
28.074014 89.684 -166.3770
28.277450 89.684 -166.6505
28.482360 89.683 -166.9277
28.688755 89.680 -167.2060
28.896645 89.677 -167.4821
29.106042 89.672 -167.7529
29.316957 89.666 -168.0158
29.529400 89.660 -168.2695
29.743382 89.654 -168.5141
29.958915 89.648 -168.7512
30.176009 89.644 -168.9833
30.394677 89.641 -169.2137
30.614929 89.639 -169.4455
30.836778 89.638 -169.6814
31.060234 89.637 -169.9227
31.285309 89.636 -170.1696
31.512015 89.634 -170.4207
31.740364 89.632 -170.6743
31.970368 89.628 -170.9281
32.202039 89.624 -171.1801
32.435388 89.619 -171.4289
32.670428 89.614 -171.6742
32.907171 89.609 -171.9163
33.145630 89.604 -172.1560
33.385817 89.598 -172.3942
33.627745 89.592 -172.6314
33.871425 89.586 -172.8677
34.116871 89.580 -173.1028
34.364096 89.573 -173.3364
34.613113 89.566 -173.5681
34.863934 89.559 -173.7984
35.116572 89.552 -174.0280
35.371041 89.545 -174.2582
35.627354 89.538 -174.4900
35.885525 89.531 -174.7236
36.145566 89.523 -174.9586
36.407492 89.514 -175.1933
36.671316 89.505 -175.4257
36.937051 89.496 -175.6542
37.204712 89.486 -175.8782
37.474313 89.478 -176.0991
37.745867 89.470 -176.3200
38.019389 89.464 -176.5450
38.294893 89.458 -176.7782
38.572394 89.452 -177.0217
38.851905 89.446 -177.2753
39.133442 89.438 -177.5356
39.417019 89.429 -177.7975
39.702651 89.417 -178.0554
39.990353 89.405 -178.3050
40.280140 89.391 -178.5444
40.572026 89.378 -178.7738
40.866028 89.366 -178.9949
41.162160 89.353 -179.2092
41.460438 89.341 -179.4171
41.760877 89.330 -179.6184
42.063494 89.319 -179.8133
42.368303 89.309 179.9966
42.675322 89.301 179.8073
42.984565 89.293 179.6136
43.296048 89.286 179.4113
43.609789 89.278 179.1997
43.925804 89.268 178.9830
44.244108 89.256 178.7690
44.564719 89.241 178.5658
44.887654 89.225 178.3786
45.212928 89.210 178.2074
45.540560 89.195 178.0471
45.870565 89.182 177.8905
46.202962 89.170 177.7319
46.537768 89.159 177.5692
46.875000 89.148 177.4028
47.214676 89.138 177.2336
47.556813 89.128 177.0600
47.901429 89.119 176.8770
48.248542 89.111 176.6783
48.598171 89.102 176.4603
48.950334 89.091 176.2247
49.305048 89.077 175.9787
49.662333 89.060 175.7325
50.022206 89.040 175.4952
50.384688 89.018 175.2715
50.749796 88.997 175.0612
51.117550 88.975 174.8606
51.487969 88.955 174.6650
51.861072 88.935 174.4717
52.236879 88.916 174.2799
52.615409 88.896 174.0903
52.996681 88.878 173.9033
53.380717 88.860 173.7177
53.767536 88.843 173.5313
54.157158 88.826 173.3417
54.549603 88.810 173.1479
54.944892 88.793 172.9514
55.343045 88.776 172.7551
55.744084 88.759 172.5623
56.148028 88.741 172.3750
56.554900 88.724 172.1929
56.964720 88.707 172.0146
57.377510 88.690 171.8382
57.793291 88.674 171.6637
58.212085 88.657 171.4927
58.633914 88.639 171.3277
59.058799 88.622 171.1700
59.486764 88.605 171.0178
59.917829 88.589 170.8660
60.352019 88.573 170.7086
60.789354 88.557 170.5418
61.229859 88.538 170.3672
61.673556 88.517 170.1905
62.120468 88.494 170.0186
62.570618 88.469 169.8558
63.024031 88.443 169.7022
63.480729 88.418 169.5544
63.940736 88.394 169.4083
64.404077 88.371 169.2604
64.870776 88.349 169.1084
65.340856 88.328 168.9512
65.814343 88.307 168.7896
66.291261 88.287 168.6260
66.771635 88.266 168.4646
67.255489 88.246 168.3095
67.742850 88.226 168.1628
68.233743 88.208 168.0236
68.728193 88.190 167.8882
69.226226 88.174 167.7508
69.727867 88.157 167.6061
70.233144 88.139 167.4509
70.742083 88.118 167.2844
71.254709 88.093 167.1080
71.771050 88.065 166.9253
72.291132 88.031 166.7425
72.814984 87.992 166.5698
73.342631 87.949 166.4178
73.874102 87.905 166.2927
74.409424 87.863 166.1918
74.948626 87.823 166.1063
75.491734 87.788 166.0280
76.038779 87.757 165.9527
76.589787 87.730 165.8764
77.144788 87.709 165.7922
77.703811 87.692 165.6913
78.266885 87.677 165.5699
78.834039 87.661 165.4323
79.405303 87.644 165.2876
79.980706 87.624 165.1436
80.560280 87.602 165.0048
81.144053 87.576 164.8742
81.732056 87.546 164.7556
82.324320 87.513 164.6522
82.920876 87.478 164.5649
83.521755 87.442 164.4909
84.126988 87.405 164.4256
84.736607 87.368 164.3648
85.350643 87.331 164.3065
85.969129 87.294 164.2501
86.592097 87.258 164.1956
87.219579 87.223 164.1430
87.851608 87.188 164.0931
88.488217 87.152 164.0482
89.129439 87.116 164.0121
89.775308 87.079 163.9887
90.425856 87.041 163.9813
91.081119 87.000 163.9929
91.741131 86.959 164.0280
92.405925 86.916 164.0910
93.075536 86.873 164.1851
93.750000 86.832 164.3089
