* Measurement data measured by REW V5.31
* Source: Headset (CX31993 HIFI AUDIO), MICROPHONE (Master Volume), R, volume: 0.600
* Format: 256k Log Swept Sine, 1 sweep at -12.0 dBFS with no timing reference
* Dated: May 10, 2024 7:00:52 PM
* REW Settings:
*  C-weighting compensation: Off
*  Target level: 75.0 dB
* Note: ; 
* Measurement: Moondrop ChuII nobass R
* Smoothing: 1/24 octave
* Frequency Step: 96 ppo
* Start Frequency: 20.141602 Hz
*
* Freq(Hz) SPL(dB) Phase(degrees)
20.141602 94.786 -148.7385
20.287556 94.794 -148.8849
20.434568 94.805 -149.1068
20.582645 94.817 -149.3748
20.731796 94.828 -149.6722
20.882027 94.837 -149.9851
21.033346 94.844 -150.3009
21.185763 94.847 -150.6031
21.339284 94.849 -150.8726
21.493917 94.849 -151.0946
21.649671 94.851 -151.2539
21.806553 94.856 -151.3425
21.964572 94.868 -151.3616
22.123737 94.888 -151.3191
22.284054 94.920 -151.2343
22.445534 94.963 -151.1344
22.608183 95.015 -151.0472
22.772012 95.075 -151.0053
22.937027 95.137 -151.0323
23.103238 95.197 -151.1462
23.270654 95.248 -151.3551
23.439282 95.286 -151.6533
23.609133 95.306 -152.0282
23.780215 95.307 -152.4570
23.952536 95.287 -152.9124
24.126106 95.249 -153.3683
24.300934 95.196 -153.7978
24.477028 95.134 -154.1840
24.654399 95.070 -154.5163
24.833055 95.009 -154.7955
25.013005 94.958 -155.0325
25.194260 94.920 -155.2437
25.376828 94.898 -155.4510
25.560719 94.892 -155.6715
25.745942 94.899 -155.9188
25.932508 94.916 -156.1962
26.120426 94.938 -156.4981
26.309705 94.963 -156.8129
26.500356 94.988 -157.1236
26.692388 95.010 -157.4149
26.885812 95.029 -157.6738
27.080638 95.045 -157.8947
27.276876 95.058 -158.0778
27.474535 95.070 -158.2295
27.673627 95.079 -158.3599
27.874161 95.087 -158.4797
28.076149 95.092 -158.5982
28.279600 95.095 -158.7213
28.484526 95.095 -158.8520
28.690937 95.095 -158.9909
28.898843 95.095 -159.1383
29.108256 95.096 -159.2955
29.319186 95.101 -159.4659
29.531645 95.109 -159.6536
29.745644 95.120 -159.8627
29.961193 95.133 -160.0942
30.178304 95.145 -160.3447
30.396989 95.154 -160.6058
30.617258 95.160 -160.8651
30.839123 95.160 -161.1087
31.062596 95.156 -161.3254
31.287688 95.150 -161.5083
31.514412 95.142 -161.6583
31.742778 95.135 -161.7830
31.972800 95.130 -161.8953
32.204488 95.128 -162.0088
32.437855 95.129 -162.1356
32.672913 95.130 -162.2820
32.909674 95.132 -162.4488
33.148151 95.134 -162.6320
33.388356 95.136 -162.8255
33.630302 95.137 -163.0235
33.874001 95.140 -163.2225
34.119466 95.143 -163.4214
34.366710 95.146 -163.6205
34.615745 95.150 -163.8198
34.866585 95.153 -164.0178
35.119243 95.155 -164.2109
35.373731 95.156 -164.3946
35.630064 95.155 -164.5654
35.888254 95.155 -164.7220
36.148315 95.155 -164.8667
36.410261 95.156 -165.0043
36.674104 95.158 -165.1404
36.939860 95.160 -165.2798
37.207542 95.161 -165.4247
37.477163 95.162 -165.5744
37.748738 95.161 -165.7267
38.022281 95.160 -165.8785
38.297806 95.157 -166.0285
38.575327 95.156 -166.1773
38.854860 95.155 -166.3272
39.136419 95.156 -166.4816
39.420017 95.159 -166.6433
39.705671 95.162 -166.8133
39.993395 95.166 -166.9898
40.283203 95.169 -167.1688
40.575112 95.172 -167.3441
40.869136 95.173 -167.5091
41.165290 95.172 -167.6589
41.463591 95.170 -167.7919
41.764053 95.169 -167.9108
42.066693 95.168 -168.0226
42.371525 95.167 -168.1368
42.678567 95.167 -168.2627
42.987834 95.167 -168.4057
43.299341 95.166 -168.5654
43.613106 95.164 -168.7359
43.929145 95.161 -168.9065
44.247473 95.158 -169.0654
44.568109 95.156 -169.2032
44.891068 95.157 -169.3160
45.216367 95.160 -169.4060
45.544023 95.167 -169.4802
45.874054 95.174 -169.5489
46.206476 95.181 -169.6221
46.541307 95.185 -169.7075
46.878565 95.185 -169.8083
47.218266 95.180 -169.9236
47.560429 95.171 -170.0503
47.905072 95.161 -170.1858
48.252212 95.151 -170.3308
48.601867 95.146 -170.4895
48.954056 95.145 -170.6662
49.308798 95.148 -170.8612
49.666109 95.152 -171.0667
50.026010 95.155 -171.2675
50.388520 95.156 -171.4463
50.753656 95.155 -171.5925
51.121437 95.151 -171.7083
51.491884 95.148 -171.8089
51.865016 95.143 -171.9137
52.240851 95.137 -172.0349
52.619410 95.128 -172.1705
53.000712 95.116 -172.3065
53.384777 95.103 -172.4289
53.771625 95.095 -172.5356
54.161276 95.092 -172.6399
54.553751 95.094 -172.7609
54.949070 95.098 -172.9084
55.347254 95.100 -173.0734
55.748323 95.098 -173.2330
56.152298 95.094 -173.3668
56.559201 95.091 -173.4728
56.969052 95.090 -173.5697
57.381873 95.091 -173.6831
57.797686 95.090 -173.8267
58.216512 95.086 -173.9947
58.638373 95.080 -174.1696
59.063291 95.074 -174.3365
59.491288 95.072 -174.4892
59.922386 95.074 -174.6241
60.356608 95.078 -174.7318
60.793977 95.081 -174.8011
61.234515 95.084 -174.8351
61.678246 95.087 -174.8618
62.125192 95.088 -174.9211
62.575377 95.083 -175.0368
63.028824 95.070 -175.1974
63.485557 95.052 -175.3670
63.945599 95.036 -175.5153
64.408975 95.027 -175.6388
64.875709 95.027 -175.7543
65.345825 95.032 -175.8773
65.819348 95.035 -176.0084
66.296302 95.035 -176.1376
66.776713 95.029 -176.2558
67.260604 95.020 -176.3606
67.748002 95.008 -176.4576
68.238932 94.995 -176.5592
68.733420 94.981 -176.6780
69.231490 94.965 -176.8149
69.733170 94.950 -176.9548
70.238485 94.939 -177.0789
70.747463 94.935 -177.1815
71.260128 94.939 -177.2694
71.776508 94.944 -177.3469
72.296630 94.945 -177.4131
72.820521 94.941 -177.4771
73.348209 94.932 -177.5638
73.879720 94.921 -177.6931
74.415083 94.911 -177.8592
74.954326 94.903 -178.0381
75.497475 94.899 -178.2082
76.044561 94.894 -178.3554
76.595612 94.884 -178.4686
77.150655 94.870 -178.5509
77.709720 94.859 -178.6300
78.272837 94.856 -178.7326
78.840034 94.865 -178.8522
79.411342 94.887 -178.9663
79.986789 94.916 -179.0764
80.566406 94.937 -179.1956
81.150224 94.932 -179.3007
81.738272 94.905 -179.3481
82.330581 94.871 -179.3556
82.927182 94.846 -179.4094
83.528107 94.828 -179.5535
84.133386 94.810 -179.7297
84.743051 94.787 -179.8639
85.357134 94.766 -179.9629
85.975667 94.750 179.9249
86.598682 94.745 179.8103
87.226212 94.757 179.7789
87.858289 94.785 179.9210
88.494946 94.818 -179.7556
89.136217 94.841 -179.3803
89.782135 94.841 -179.1739
90.432733 94.810 -179.2809
91.088046 94.758 -179.6325
91.748108 94.711 179.9830
92.412952 94.693 179.7227
93.082615 94.699 179.5897
93.757130 94.706 179.4887
94.436533 94.696 179.3210
95.120859 94.666 179.0544
95.810144 94.627 178.7589
96.504423 94.589 178.5485
97.203734 94.561 178.4566
97.908112 94.540 178.4034
98.617595 94.522 178.2941
99.332219 94.515 178.0913
100.052021 94.523 177.8094
100.777039 94.533 177.5317
101.507311 94.527 177.3920
102.242875 94.504 177.4291
102.983769 94.476 177.5115
103.730032 94.450 177.4937
104.481702 94.429 177.3691
105.238820 94.412 177.2248
106.001424 94.397 177.1331
106.769554 94.378 177.0953
107.543250 94.353 177.0743
108.322553 94.316 177.0964
109.107503 94.270 177.2560
109.898141 94.226 177.6077
110.694508 94.198 178.1168
111.496646 94.201 178.6600
112.304596 94.240 179.0344
113.118402 94.302 179.0647
113.938104 94.364 178.7473
114.763747 94.408 178.2549
115.595372 94.421 177.7878
116.433024 94.404 177.4378
117.276746 94.377 177.1774
118.126581 94.372 176.9150
118.982575 94.397 176.6575
119.844772 94.430 176.6555
120.713217 94.463 177.0890
121.587954 94.513 177.6245
122.469031 94.589 177.6931
123.356492 94.677 177.1097
124.250384 94.752 176.0923
125.150753 94.780 174.9186
126.057647 94.736 173.8151
126.971113 94.628 172.9899
127.891198 94.482 172.5532
128.817950 94.314 172.4543
129.751418 94.116 172.6063
130.691651 93.882 173.0063
131.638696 93.618 173.6930
132.592604 93.333 174.7033
133.553425 93.030 176.0809
134.521208 92.714 177.9058
135.496004 92.404 -179.6879
136.477864 92.145 -176.7814
137.466839 91.979 -174.0898
138.462981 91.873 -172.4454
139.466340 91.773 -171.9146
140.476971 91.682 -172.3036
141.494925 91.633 -173.7641
142.520256 91.622 -176.5114
143.553016 91.618 179.9410
144.593260 91.651 176.3986
145.641043 91.770 173.4220
146.696418 92.011 171.2211
147.759441 92.323 169.4984
148.830166 92.591 168.4401
149.908651 92.754 168.8583
150.994951 92.884 171.4365
152.089123 93.093 174.6671
153.191223 93.321 176.8041
154.301310 93.464 177.7990
155.419441 93.481 178.5074
156.545674 93.456 179.4655
157.680069 93.455 -179.7189
158.822683 93.504 -179.1395
159.973578 93.622 -179.3587
161.132813 93.735 179.2705
162.300447 93.809 177.5830
163.476543 93.861 176.0494
164.661162 93.866 175.0452
165.854364 93.857 174.8424
167.056213 93.864 174.7772
168.266772 93.832 174.6518
169.486102 93.775 175.5472
170.714268 93.800 177.3725
171.951334 93.872 178.6002
173.197364 93.836 178.9459
174.452424 93.664 179.4437
175.716578 93.481 -179.6492
176.989893 93.398 -179.3304
178.272434 93.393 179.7085
179.564270 93.389 178.0800
180.865467 93.368 177.0090
182.176092 93.351 177.1562
183.496216 93.328 178.0972
184.825905 93.254 178.7368
186.165229 93.111 178.1477
187.514259 92.970 175.9760
188.873065 92.976 172.6652
190.241717 93.233 169.6883
191.620287 93.672 168.7956
193.008847 94.096 170.5716
194.407468 94.331 174.0855
195.816225 94.305 177.7381
197.235190 94.054 -179.8720
198.664438 93.706 -179.4894
200.104042 93.425 179.1667
201.554078 93.304 177.3131
203.014622 93.310 176.0716
204.485750 93.346 175.6898
205.967538 93.349 175.7889
207.460064 93.317 175.9476
208.963405 93.273 176.0060
210.477640 93.235 175.9765
212.002848 93.200 175.9165
213.539108 93.164 175.9054
215.086500 93.126 175.9778
216.645105 93.093 176.0866
218.215005 93.072 176.1943
219.796281 93.062 176.2770
221.389015 93.060 176.2970
222.993292 93.059 176.2596
224.609193 93.054 176.2343
226.236804 93.040 176.2714
227.876209 93.014 176.3705
229.527494 92.975 176.5019
231.190745 92.925 176.6337
232.866048 92.878 176.7751
234.553491 92.854 176.9774
236.253163 92.851 177.1957
237.965150 92.848 177.3700
239.689544 92.840 177.5034
241.426433 92.828 177.6104
243.175909 92.816 177.6764
244.938062 92.806 177.7311
246.712984 92.797 177.8146
248.500768 92.790 177.9296
250.301507 92.782 178.0261
252.115295 92.771 178.0504
253.942226 92.760 177.9998
255.782396 92.754 177.9334
257.635901 92.751 177.9401
259.502837 92.742 178.0326
261.383301 92.721 178.1595
263.277392 92.693 178.2297
265.185209 92.665 178.2429
267.106850 92.645 178.2761
269.042417 92.630 178.3644
270.992009 92.614 178.4954
272.955729 92.599 178.6296
274.933678 92.588 178.7771
276.925961 92.582 178.9794
278.932681 92.585 179.1859
280.953942 92.598 179.3320
282.989850 92.621 179.4572
285.040511 92.660 179.5482
287.106032 92.711 179.6045
289.186521 92.767 179.6981
291.282086 92.822 179.7774
293.392836 92.864 179.8577
295.518881 92.883 -179.9371
297.660333 92.873 -179.6047
299.817302 92.827 -179.2477
301.989902 92.749 -179.0461
304.178245 92.664 -179.0693
306.382446 92.619 -179.2442
308.602620 92.638 -179.4756
310.838882 92.692 -179.5539
313.091348 92.733 -179.3303
315.360137 92.743 -178.9068
317.645367 92.746 -178.6729
319.947156 92.759 -178.7511
322.265625 92.760 -178.9641
324.600895 92.716 -179.2583
326.953086 92.628 -179.5653
329.322323 92.505 -179.6424
331.708729 92.360 -179.5471
334.112427 92.218 -179.3698
336.533543 92.103 -179.0957
338.972204 92.033 -178.7794
341.428536 92.016 -178.4327
343.902668 92.038 -178.1620
346.394729 92.070 -177.9773
348.904848 92.085 -177.8712
351.433156 92.072 -177.7690
353.979786 92.039 -177.6333
356.544869 92.003 -177.4367
359.128540 91.976 -177.2095
361.730934 91.958 -176.9954
364.352185 91.942 -176.8325
366.992431 91.925 -176.7306
369.651810 91.902 -176.6399
372.330459 91.874 -176.5430
375.028519 91.840 -176.4021
377.746130 91.803 -176.2021
380.483434 91.766 -175.9778
383.240574 91.739 -175.7790
386.017693 91.723 -175.6457
388.814937 91.721 -175.5748
391.632450 91.733 -175.5243
394.470380 91.759 -175.4663
397.328875 91.789 -175.3474
400.208084 91.811 -175.0965
403.108157 91.819 -174.7394
406.029245 91.812 -174.4183
408.971500 91.790 -174.2150
411.935076 91.762 -174.0617
414.920127 91.739 -173.8812
417.926810 91.720 -173.6742
420.955280 91.702 -173.4760
424.005695 91.688 -173.2991
427.078215 91.681 -173.1079
430.173000 91.672 -172.8798
433.290211 91.658 -172.6440
436.430010 91.646 -172.4242
439.592562 91.638 -172.2106
442.778031 91.627 -172.0422
445.986583 91.610 -171.9386
449.218386 91.588 -171.8236
452.473607 91.562 -171.6508
455.752418 91.540 -171.4035
459.054987 91.525 -171.0881
462.381489 91.516 -170.7638
465.732096 91.509 -170.4508
469.106983 91.504 -170.1341
472.506325 91.503 -169.8060
475.930301 91.507 -169.4957
479.379088 91.511 -169.2282
482.852867 91.509 -169.0001
486.351817 91.500 -168.8233
489.876123 91.488 -168.7061
493.425968 91.476 -168.6158
497.001536 91.469 -168.5271
500.603014 91.469 -168.4099
504.230589 91.473 -168.2291
507.884452 91.477 -167.9702
511.564792 91.476 -167.6649
515.271802 91.470 -167.3635
519.005673 91.461 -167.0960
522.766602 91.453 -166.8569
526.554785 91.448 -166.6197
530.370418 91.445 -166.3760
534.213700 91.442 -166.1272
538.084833 91.439 -165.8702
541.984018 91.434 -165.6038
545.911457 91.430 -165.3330
549.867357 91.426 -165.0639
553.851922 91.423 -164.7967
557.865362 91.421 -164.5325
561.907884 91.420 -164.2750
565.979700 91.418 -164.0149
570.081022 91.416 -163.7473
574.212064 91.414 -163.4719
578.373042 91.413 -163.1881
582.564171 91.413 -162.9015
586.785671 91.413 -162.6230
591.037762 91.413 -162.3535
595.320665 91.413 -162.0842
599.634604 91.412 -161.8088
603.979804 91.411 -161.5286
608.356491 91.410 -161.2422
612.764893 91.411 -160.9494
617.205240 91.411 -160.6566
621.677763 91.412 -160.3621
626.182696 91.413 -160.0675
630.720274 91.414 -159.7721
635.290733 91.415 -159.4748
639.894312 91.417 -159.1761
644.531250 91.418 -158.8721
649.201789 91.419 -158.5565
653.906173 91.422 -158.2230
658.644647 91.428 -157.8777
663.417457 91.438 -157.5427
668.224854 91.450 -157.2365
673.067086 91.462 -156.9567
677.944408 91.469 -156.6835
682.857073 91.472 -156.3894
687.805336 91.473 -156.0560
692.789457 91.475 -155.6925
697.809695 91.479 -155.3154
702.866312 91.485 -154.9331
707.959571 91.492 -154.5505
713.089738 91.500 -154.1718
718.257080 91.508 -153.7950
723.461867 91.516 -153.4118
728.704370 91.525 -153.0254
733.984862 91.538 -152.6438
739.303619 91.552 -152.2690
744.660918 91.567 -151.8920
750.057038 91.582 -151.5014
755.492260 91.597 -151.1003
760.966869 91.613 -150.6974
766.481148 91.631 -150.3026
772.035387 91.650 -149.9150
777.629873 91.672 -149.5219
783.264900 91.693 -149.1225
788.940760 91.715 -148.7239
794.657750 91.736 -148.3223
800.416168 91.759 -147.9153
806.216313 91.783 -147.5064
812.058489 91.808 -147.0977
817.943000 91.836 -146.6856
823.870152 91.865 -146.2675
829.840255 91.895 -145.8481
835.853619 91.926 -145.4315
841.910559 91.957 -145.0150
848.011390 91.989 -144.5980
854.156430 92.021 -144.1835
860.346000 92.055 -143.7715
866.580422 92.091 -143.3576
872.860020 92.128 -142.9387
879.185124 92.167 -142.5189
885.556062 92.207 -142.1018
891.973166 92.249 -141.6834
898.436771 92.291 -141.2644
904.947215 92.336 -140.8477
911.504835 92.383 -140.4355
918.109975 92.431 -140.0300
924.762978 92.481 -139.6285
931.464192 92.531 -139.2286
938.213966 92.583 -138.8333
945.012651 92.636 -138.4449
951.860602 92.691 -138.0627
958.758176 92.747 -137.6847
965.705733 92.805 -137.3113
972.703635 92.864 -136.9430
979.752246 92.924 -136.5805
986.851935 92.986 -136.2249
994.003071 93.048 -135.8751
1001.206027 93.112 -135.5315
1008.461179 93.176 -135.1975
1015.768904 93.242 -134.8764
1023.129584 93.308 -134.5682
1030.543603 93.376 -134.2711
1038.011347 93.445 -133.9817
1045.533205 93.515 -133.6992
1053.109569 93.586 -133.4247
1060.740836 93.657 -133.1586
1068.427401 93.728 -132.9017
1076.169666 93.800 -132.6562
1083.968035 93.872 -132.4235
1091.822915 93.944 -132.2018
1099.734713 94.017 -131.9898
1107.703844 94.090 -131.7878
1115.730723 94.163 -131.5971
1123.815768 94.236 -131.4163
1131.959400 94.309 -131.2429
1140.162045 94.382 -131.0760
1148.424129 94.454 -130.9182
1156.746083 94.525 -130.7708
1165.128342 94.597 -130.6329
1173.571343 94.668 -130.5032
1182.075524 94.739 -130.3812
1190.641331 94.810 -130.2669
1199.269209 94.880 -130.1602
1207.959608 94.949 -130.0605
1216.712981 95.017 -129.9660
1225.529785 95.085 -129.8756
1234.410479 95.152 -129.7899
1243.355526 95.218 -129.7098
1252.365393 95.283 -129.6331
1261.440549 95.349 -129.5580
1270.581467 95.413 -129.4854
1279.788624 95.477 -129.4167
1289.062500 95.540 -129.3524
1298.403578 95.603 -129.2928
1307.812346 95.665 -129.2362
1317.289293 95.726 -129.1811
1326.834914 95.787 -129.1271
1336.449707 95.847 -129.0736
1346.134173 95.907 -129.0195
1355.888816 95.966 -128.9644
1365.714145 96.025 -128.9088
1375.610673 96.084 -128.8542
1385.578915 96.142 -128.8011
1395.619391 96.200 -128.7502
1405.732624 96.258 -128.6994
1415.919142 96.316 -128.6458
1426.179476 96.373 -128.5905
1436.514160 96.430 -128.5356
1446.923734 96.487 -128.4799
1457.408740 96.544 -128.4228
1467.969724 96.602 -128.3648
1478.607238 96.659 -128.3060
1489.321836 96.717 -128.2465
1500.114076 96.775 -128.1868
1510.984521 96.833 -128.1275
1521.933737 96.891 -128.0671
1532.962297 96.949 -128.0045
1544.070773 97.008 -127.9408
1555.259747 97.066 -127.8779
1566.529800 97.125 -127.8166
1577.881521 97.185 -127.7559
1589.315501 97.245 -127.6959
1600.832336 97.305 -127.6373
1612.432627 97.366 -127.5800
1624.116978 97.427 -127.5233
1635.886000 97.488 -127.4671
1647.740304 97.550 -127.4110
1659.680509 97.611 -127.3559
1671.707238 97.674 -127.3028
1683.821118 97.736 -127.2520
1696.022780 97.800 -127.2044
1708.312860 97.864 -127.1599
1720.692000 97.929 -127.1177
1733.160843 97.994 -127.0774
1745.720041 98.060 -127.0405
1758.370248 98.126 -127.0060
1771.112124 98.193 -126.9732
1783.946332 98.260 -126.9428
1796.873543 98.328 -126.9161
1809.894429 98.396 -126.8929
1823.009670 98.465 -126.8731
1836.219950 98.535 -126.8568
1849.525956 98.605 -126.8444
1862.928384 98.675 -126.8361
1876.427931 98.746 -126.8316
1890.025301 98.817 -126.8302
1903.721204 98.888 -126.8318
1917.516352 98.960 -126.8367
1931.411466 99.033 -126.8457
1945.407270 99.106 -126.8600
1959.504493 99.180 -126.8800
1973.703870 99.255 -126.9059
1988.006142 99.330 -126.9376
2002.412054 99.406 -126.9747
2016.922357 99.483 -127.0170
2031.537808 99.559 -127.0642
2046.259169 99.637 -127.1170
2061.087206 99.715 -127.1768
2076.022694 99.794 -127.2444
2091.066410 99.873 -127.3205
2106.219139 99.953 -127.4051
2121.481671 100.034 -127.4982
2136.854802 100.116 -127.5997
2152.339333 100.197 -127.7094
2167.936071 100.279 -127.8279
2183.645829 100.362 -127.9555
2199.469427 100.444 -128.0924
2215.407689 100.527 -128.2395
2231.461446 100.611 -128.3978
2247.631536 100.695 -128.5678
2263.918800 100.779 -128.7502
2280.324089 100.864 -128.9450
2296.848258 100.948 -129.1518
2313.492167 101.033 -129.3702
2330.256685 101.117 -129.6001
2347.142685 101.201 -129.8424
2364.151049 101.284 -130.0972
2381.282662 101.368 -130.3652
2398.538418 101.451 -130.6473
2415.919216 101.535 -130.9439
2433.425962 101.618 -131.2550
2451.059570 101.701 -131.5803
2468.820958 101.784 -131.9194
2486.711052 101.866 -132.2726
2504.730786 101.947 -132.6398
2522.881098 102.027 -133.0212
2541.162934 102.106 -133.4174
2559.577248 102.184 -133.8296
2578.125000 102.262 -134.2576
2596.807157 102.338 -134.7014
2615.624692 102.413 -135.1606
2634.578586 102.487 -135.6345
2653.669829 102.559 -136.1229
2672.899414 102.629 -136.6257
2692.268345 102.697 -137.1426
2711.777632 102.763 -137.6732
2731.428290 102.826 -138.2174
2751.221345 102.887 -138.7747
2771.157829 102.946 -139.3450
2791.238781 103.003 -139.9277
2811.465248 103.057 -140.5219
2831.838284 103.109 -141.1271
2852.358952 103.158 -141.7423
2873.028321 103.204 -142.3665
2893.847468 103.247 -142.9991
2914.817480 103.287 -143.6390
2935.939449 103.323 -144.2860
2957.214476 103.357 -144.9400
2978.643672 103.387 -145.5997
3000.228152 103.414 -146.2639
3021.969041 103.438 -146.9312
3043.867475 103.459 -147.6002
3065.924593 103.476 -148.2701
3088.141547 103.490 -148.9399
3110.519493 103.500 -149.6085
3133.059600 103.507 -150.2748
3155.763041 103.510 -150.9380
3178.631001 103.510 -151.5972
