* Measurement data measured by REW V5.31.3
* Source: Headset (2- CX31993 HIFI AUDIO), MICROPHONE (Master Volume), R, volume: 0.250
* Format: 256k Log Swept Sine, 1 sweep at -12.0 dBFS with no timing reference
* Dated: 12 11, 24 12:58:39 PM
* REW Settings:
*  C-weighting compensation: Off
*  Target level: 75.0 dB
* Note: ; 
* Measurement: QoA Mimosa R
* Smoothing: 1/12 octave
* Frequency Step: 96 ppo
* Start Frequency: 0.36621094 Hz
*
* Freq(Hz) SPL(dB) Phase(degrees)
0.366211 42.583 -7.2625
0.368865 42.594 -7.1948
0.371538 42.610 -7.0944
0.374230 42.630 -6.9699
0.376942 42.653 -6.8289
0.379673 42.677 -6.6768
0.382424 42.702 -6.5172
0.385196 42.728 -6.3524
0.387987 42.754 -6.1835
0.390798 42.780 -6.0112
0.393630 42.807 -5.8358
0.396483 42.834 -5.6575
0.399356 42.861 -5.4762
0.402250 42.889 -5.2921
0.405165 42.917 -5.1050
0.408101 42.944 -4.9149
0.411058 42.972 -4.7216
0.414037 43.001 -4.5252
0.417037 43.029 -4.3255
0.420059 43.058 -4.1225
0.423103 43.087 -3.9161
0.426169 43.116 -3.7062
0.429257 43.145 -3.4927
0.432368 43.175 -3.2756
0.435501 43.204 -3.0548
0.438656 43.234 -2.8302
0.441835 43.265 -2.6017
0.445037 43.295 -2.3693
0.448262 43.326 -2.1329
0.451510 43.356 -1.8923
0.454782 43.387 -1.6476
0.458077 43.419 -1.3987
0.461397 43.450 -1.1454
0.464740 43.482 -0.8878
0.468108 43.514 -0.6257
0.471500 43.546 -0.3592
0.474917 43.578 -0.0881
0.478358 43.611 0.1876
0.481825 43.644 0.4679
0.485316 43.677 0.7529
0.488833 43.711 1.0427
0.492375 43.744 1.3372
0.495943 43.778 1.6366
0.499537 43.812 1.9407
0.503157 43.847 2.2497
0.506803 43.881 2.5635
0.510475 43.916 2.8822
0.514175 43.951 3.2057
0.517900 43.986 3.5341
0.521653 44.022 3.8673
0.525434 44.058 4.2052
0.529241 44.094 4.5479
0.533076 44.130 4.8952
0.536939 44.167 5.2471
0.540830 44.204 5.6036
0.544749 44.241 5.9646
0.548696 44.279 6.3299
0.552673 44.316 6.6994
0.556677 44.354 7.0730
0.560711 44.393 7.4506
0.564774 44.431 7.8321
0.568867 44.470 8.2172
0.572989 44.509 8.6058
0.577141 44.549 8.9977
0.581324 44.588 9.3926
0.585536 44.628 9.7905
0.589779 44.669 10.1909
0.594053 44.709 10.5937
0.598358 44.750 10.9986
0.602694 44.791 11.4054
0.607061 44.833 11.8137
0.611460 44.874 12.2232
0.615891 44.917 12.6336
0.620354 44.959 13.0447
0.624849 45.002 13.4560
0.629377 45.045 13.8672
0.633938 45.088 14.2780
0.638532 45.131 14.6879
0.643159 45.175 15.0967
0.647819 45.220 15.5039
0.652514 45.264 15.9092
0.657242 45.309 16.3121
0.662005 45.354 16.7123
0.666802 45.400 17.1094
0.671634 45.446 17.5030
0.676501 45.492 17.8927
0.681403 45.538 18.2781
0.686341 45.585 18.6590
0.691314 45.633 19.0348
0.696324 45.681 19.4053
0.701370 45.730 19.7702
0.706452 45.780 20.1293
0.711571 45.831 20.4826
0.716728 45.885 20.8301
0.721921 45.942 21.1722
0.727153 46.005 21.5098
0.732422 46.074 21.8438
0.737729 46.151 22.1755
0.743075 46.235 22.5063
0.748460 46.325 22.8371
0.753883 46.420 23.1683
0.759346 46.520 23.5000
0.764849 46.624 23.8322
0.770391 46.731 24.1645
0.775974 46.842 24.4964
0.781597 46.956 24.8274
0.787261 47.073 25.1569
0.792966 47.193 25.4845
0.798712 47.316 25.8095
0.804500 47.442 26.1315
0.810329 47.571 26.4498
0.816201 47.703 26.7640
0.822116 47.837 27.0735
0.828073 47.975 27.3779
0.834074 48.115 27.6766
0.840118 48.258 27.9692
0.846206 48.404 28.2552
0.852338 48.552 28.5342
0.858514 48.702 28.8058
0.864735 48.855 29.0694
0.871001 49.011 29.3248
0.877313 49.169 29.5716
0.883670 49.329 29.8094
0.890074 49.491 30.0378
0.896524 49.656 30.2565
0.903020 49.822 30.4651
0.909564 49.990 30.6635
0.916155 50.160 30.8512
0.922794 50.332 31.0281
0.929481 50.505 31.1938
0.936216 50.680 31.3480
0.943000 50.857 31.4907
0.949834 51.034 31.6215
0.956717 51.213 31.7402
0.963649 51.392 31.8467
0.970632 51.573 31.9407
0.977666 51.754 32.0221
0.984750 51.935 32.0908
0.991886 52.117 32.1465
0.999074 52.299 32.1892
1.006314 52.481 32.2187
1.013606 52.663 32.2350
1.020951 52.845 32.2378
1.028349 53.026 32.2273
1.035801 53.206 32.2032
1.043307 53.386 32.1657
1.050867 53.564 32.1146
1.058482 53.741 32.0503
1.066152 53.916 31.9730
1.073878 54.090 31.8832
1.081660 54.263 31.7818
1.089498 54.434 31.6701
1.097393 54.604 31.5500
1.105345 54.772 31.4235
1.113355 54.940 31.2927
1.121423 55.108 31.1593
1.129549 55.276 31.0243
1.137734 55.444 30.8885
1.145979 55.612 30.7521
1.154283 55.780 30.6149
1.162647 55.949 30.4768
1.171072 56.118 30.3376
1.179558 56.287 30.1969
1.188106 56.456 30.0543
1.196715 56.625 29.9097
1.205387 56.795 29.7625
1.214122 56.965 29.6125
1.222920 57.135 29.4594
1.231782 57.305 29.3028
1.240708 57.475 29.1425
1.249699 57.646 28.9780
1.258754 57.816 28.8092
1.267876 57.987 28.6357
1.277063 58.158 28.4572
1.286318 58.328 28.2735
1.295639 58.499 28.0842
1.305027 58.670 27.8892
1.314484 58.841 27.6881
1.324009 59.012 27.4807
1.333604 59.183 27.2667
1.343268 59.354 27.0459
1.353002 59.525 26.8179
1.362806 59.696 26.5826
1.372681 59.866 26.3397
1.382628 60.037 26.0890
1.392647 60.207 25.8303
1.402739 60.378 25.5634
1.412904 60.548 25.2881
1.423142 60.718 25.0046
1.433455 60.888 24.7130
1.443843 61.057 24.4138
1.454305 61.226 24.1077
1.464844 61.395 23.7960
1.475459 61.563 23.4799
1.486150 61.731 23.1609
1.496920 61.898 22.8400
1.507767 62.064 22.5178
1.518693 62.230 22.1949
1.529698 62.395 21.8712
1.540783 62.559 21.5466
1.551948 62.723 21.2210
1.563194 62.885 20.8942
1.574521 63.048 20.5658
1.585931 63.209 20.2355
1.597423 63.371 19.9031
1.608999 63.531 19.5682
1.620658 63.691 19.2305
1.632402 63.851 18.8896
1.644232 64.010 18.5452
1.656146 64.168 18.1971
1.668147 64.326 17.8448
1.680235 64.484 17.4880
1.692411 64.642 17.1265
1.704675 64.799 16.7598
1.717028 64.956 16.3877
1.729470 65.112 16.0098
1.742003 65.269 15.6258
1.754626 65.425 15.2354
1.767341 65.581 14.8384
1.780147 65.737 14.4345
1.793047 65.893 14.0237
1.806040 66.049 13.6060
1.819128 66.205 13.1817
1.832310 66.360 12.7513
1.845587 66.515 12.3155
1.858961 66.669 11.8751
1.872432 66.823 11.4308
1.886001 66.976 10.9831
1.899667 67.128 10.5325
1.913433 67.279 10.0793
1.927299 67.430 9.6238
1.941265 67.579 9.1662
1.955332 67.728 8.7065
1.969501 67.877 8.2449
1.983773 68.024 7.7815
1.998148 68.171 7.3161
2.012627 68.317 6.8489
2.027212 68.463 6.3798
2.041902 68.608 5.9088
2.056698 68.753 5.4356
2.071602 68.897 4.9604
2.086614 69.040 4.4828
2.101734 69.184 4.0028
2.116964 69.327 3.5201
2.132304 69.470 3.0347
2.147756 69.612 2.5462
2.163320 69.754 2.0544
2.178996 69.896 1.5592
2.194786 70.037 1.0603
2.210690 70.178 0.5578
2.226710 70.318 0.0516
2.242845 70.458 -0.4581
2.259098 70.596 -0.9710
2.275468 70.734 -1.4869
2.291957 70.871 -2.0054
2.308566 71.006 -2.5262
2.325295 71.142 -3.0489
2.342145 71.276 -3.5734
2.359117 71.409 -4.0992
2.376212 71.542 -4.6263
2.393431 71.674 -5.1543
2.410775 71.806 -5.6831
2.428244 71.937 -6.2126
2.445840 72.067 -6.7426
2.463564 72.197 -7.2732
2.481416 72.327 -7.8043
2.499397 72.456 -8.3360
2.517509 72.584 -8.8685
2.535752 72.712 -9.4020
2.554127 72.840 -9.9370
2.572635 72.967 -10.4738
2.591277 73.094 -11.0129
2.610055 73.219 -11.5544
2.628968 73.344 -12.0985
2.648019 73.468 -12.6450
2.667208 73.591 -13.1936
2.686535 73.713 -13.7440
2.706003 73.834 -14.2958
2.725612 73.954 -14.8486
2.745363 74.074 -15.4019
2.765257 74.193 -15.9555
2.785295 74.312 -16.5089
2.805478 74.430 -17.0619
2.825808 74.547 -17.6143
2.846285 74.664 -18.1657
2.866910 74.780 -18.7162
2.887685 74.896 -19.2659
2.908611 75.012 -19.8150
2.929688 75.127 -20.3638
2.950917 75.241 -20.9130
2.972301 75.355 -21.4630
2.993839 75.468 -22.0140
3.015534 75.580 -22.5661
3.037386 75.691 -23.1192
3.059396 75.802 -23.6732
3.081565 75.911 -24.2276
3.103896 76.020 -24.7821
3.126388 76.129 -25.3364
3.149043 76.237 -25.8900
3.171862 76.344 -26.4427
3.194847 76.451 -26.9942
3.217998 76.558 -27.5442
3.241317 76.664 -28.0927
3.264805 76.770 -28.6398
3.288463 76.875 -29.1855
3.312293 76.980 -29.7304
3.336295 77.084 -30.2748
3.360471 77.188 -30.8190
3.384822 77.291 -31.3633
3.409350 77.394 -31.9075
3.434056 77.496 -32.4518
3.458940 77.597 -32.9958
3.484005 77.698 -33.5394
3.509252 77.798 -34.0824
3.534681 77.898 -34.6245
3.560295 77.998 -35.1657
3.586094 78.097 -35.7057
3.612081 78.196 -36.2446
3.638255 78.295 -36.7823
3.664620 78.394 -37.3189
3.691175 78.492 -37.8549
3.717923 78.589 -38.3903
3.744864 78.687 -38.9254
3.772001 78.784 -39.4603
3.799335 78.880 -39.9950
3.826866 78.976 -40.5296
3.854597 79.072 -41.0640
3.882529 79.167 -41.5982
3.910664 79.262 -42.1321
3.939002 79.357 -42.6658
3.967546 79.452 -43.1992
3.996296 79.546 -43.7324
4.025255 79.640 -44.2655
4.054423 79.734 -44.7987
4.083804 79.827 -45.3321
4.113396 79.920 -45.8658
4.143204 80.013 -46.3999
4.173227 80.106 -46.9344
4.203468 80.198 -47.4694
4.233928 80.289 -48.0049
4.264609 80.381 -48.5409
4.295512 80.472 -49.0774
4.326639 80.563 -49.6145
4.357992 80.653 -50.1523
4.389572 80.744 -50.6910
4.421380 80.833 -51.2308
4.453419 80.923 -51.7717
4.485691 81.012 -52.3139
4.518196 81.100 -52.8573
4.550936 81.189 -53.4018
4.583914 81.277 -53.9473
4.617131 81.364 -54.4937
4.650589 81.451 -55.0410
4.684289 81.537 -55.5890
4.718233 81.623 -56.1379
4.752424 81.709 -56.6879
4.786862 81.793 -57.2391
4.821549 81.878 -57.7917
4.856488 81.962 -58.3457
4.891680 82.045 -58.9011
4.927127 82.128 -59.4575
4.962831 82.210 -60.0148
4.998794 82.291 -60.5726
5.035017 82.372 -61.1306
5.071503 82.452 -61.6889
5.108253 82.532 -62.2473
5.145270 82.611 -62.8061
5.182555 82.689 -63.3655
5.220110 82.766 -63.9255
5.257937 82.843 -64.4861
5.296038 82.919 -65.0469
5.334415 82.995 -65.6076
5.373071 83.070 -66.1677
5.412006 83.144 -66.7270
5.451224 83.217 -67.2852
5.490725 83.290 -67.8423
5.530514 83.362 -68.3984
5.570590 83.433 -68.9537
5.610957 83.504 -69.5082
5.651616 83.574 -70.0618
5.692570 83.643 -70.6141
5.733821 83.712 -71.1648
5.775370 83.780 -71.7136
5.817221 83.847 -72.2603
5.859375 83.914 -72.8048
5.901834 83.981 -73.3471
5.944602 84.046 -73.8874
5.987679 84.112 -74.4257
6.031068 84.176 -74.9621
6.074771 84.241 -75.4964
6.118792 84.305 -76.0284
6.163131 84.368 -76.5580
6.207792 84.431 -77.0852
6.252776 84.494 -77.6100
6.298086 84.557 -78.1325
6.343725 84.619 -78.6527
6.389694 84.680 -79.1709
6.435996 84.742 -79.6871
6.482634 84.803 -80.2015
6.529610 84.864 -80.7140
6.576926 84.925 -81.2248
6.624585 84.986 -81.7340
6.672590 85.046 -82.2416
6.720942 85.107 -82.7478
6.769645 85.167 -83.2528
6.818700 85.227 -83.7568
6.868111 85.287 -84.2599
6.917881 85.347 -84.7624
6.968010 85.406 -85.2643
7.018504 85.465 -85.7658
7.069362 85.525 -86.2670
7.120590 85.584 -86.7680
7.172189 85.642 -87.2689
7.224161 85.701 -87.7698
7.276511 85.759 -88.2708
7.329239 85.817 -88.7720
7.382350 85.875 -89.2735
7.435845 85.932 -89.7754
7.489729 85.989 -90.2776
7.544002 86.046 -90.7801
7.598669 86.103 -91.2827
7.653732 86.159 -91.7856
7.709194 86.214 -92.2887
7.765058 86.269 -92.7919
7.821327 86.324 -93.2952
7.878004 86.378 -93.7985
7.935091 86.432 -94.3015
7.992592 86.485 -94.8042
8.050510 86.537 -95.3064
8.108847 86.590 -95.8080
8.167607 86.641 -96.3089
8.226793 86.693 -96.8091
8.286408 86.743 -97.3083
8.346454 86.793 -97.8064
8.406936 86.843 -98.3032
8.467856 86.892 -98.7987
8.529218 86.941 -99.2928
8.591024 86.990 -99.7856
8.653278 87.038 -100.2769
8.715983 87.085 -100.7667
8.779143 87.133 -101.2549
8.842760 87.180 -101.7417
8.906839 87.226 -102.2270
8.971381 87.273 -102.7109
9.036392 87.319 -103.1936
9.101873 87.364 -103.6750
9.167829 87.410 -104.1554
9.234263 87.455 -104.6348
9.301178 87.500 -105.1134
9.368578 87.545 -105.5913
9.436467 87.589 -106.0687
9.504847 87.633 -106.5457
9.573723 87.677 -107.0224
9.643099 87.721 -107.4990
9.712976 87.764 -107.9756
9.783361 87.807 -108.4521
9.854255 87.849 -108.9288
9.925663 87.892 -109.4056
9.997588 87.933 -109.8826
10.070035 87.974 -110.3598
10.143007 88.015 -110.8369
10.216507 88.055 -111.3141
10.290540 88.095 -111.7910
10.365109 88.134 -112.2678
10.440219 88.173 -112.7441
10.515873 88.211 -113.2197
10.592076 88.248 -113.6945
10.668830 88.285 -114.1683
10.746141 88.321 -114.6408
10.824012 88.357 -115.1118
10.902447 88.392 -115.5811
10.981451 88.426 -116.0485
11.061027 88.460 -116.5138
11.141180 88.493 -116.9769
11.221913 88.526 -117.4377
11.303232 88.558 -117.8960
11.385140 88.590 -118.3518
11.467641 88.622 -118.8052
11.550741 88.653 -119.2561
11.634442 88.684 -119.7047
11.718750 88.715 -120.1510
11.803669 88.746 -120.5953
11.889203 88.776 -121.0376
11.975357 88.806 -121.4782
12.062136 88.836 -121.9173
12.149543 88.866 -122.3552
12.237583 88.896 -122.7920
12.326262 88.926 -123.2279
12.415583 88.955 -123.6632
12.505552 88.984 -124.0981
12.596172 89.013 -124.5326
12.687449 89.042 -124.9668
12.779387 89.071 -125.4008
12.871992 89.099 -125.8347
12.965268 89.127 -126.2683
13.059220 89.155 -126.7018
13.153852 89.182 -127.1350
13.249170 89.209 -127.5677
13.345179 89.236 -128.0000
13.441884 89.263 -128.4318
13.539289 89.289 -128.8629
13.637401 89.315 -129.2933
13.736223 89.340 -129.7230
13.835761 89.366 -130.1519
13.936021 89.391 -130.5801
14.037007 89.416 -131.0078
14.138725 89.441 -131.4349
14.241180 89.465 -131.8616
14.344377 89.490 -132.2882
14.448323 89.514 -132.7146
14.553021 89.538 -133.1412
14.658478 89.562 -133.5681
14.764700 89.586 -133.9953
14.871691 89.609 -134.4231
14.979457 89.632 -134.8513
15.088005 89.655 -135.2802
15.197339 89.678 -135.7096
15.307465 89.700 -136.1394
15.418389 89.722 -136.5697
15.530117 89.744 -137.0002
15.642655 89.765 -137.4308
15.756008 89.786 -137.8614
15.870182 89.806 -138.2920
15.985184 89.826 -138.7224
16.101019 89.845 -139.1526
16.217694 89.864 -139.5825
16.335214 89.883 -140.0122
16.453586 89.901 -140.4416
16.572815 89.919 -140.8707
16.692909 89.936 -141.2995
16.813872 89.953 -141.7278
16.935713 89.969 -142.1555
17.058436 89.985 -142.5823
17.182048 90.000 -143.0077
17.306556 90.014 -143.4314
17.431967 90.028 -143.8528
17.558286 90.040 -144.2713
17.685521 90.053 -144.6864
17.813677 90.064 -145.0973
17.942762 90.075 -145.5036
18.072783 90.086 -145.9049
18.203746 90.096 -146.3010
18.335658 90.106 -146.6920
18.468526 90.116 -147.0780
18.602356 90.126 -147.4594
18.737156 90.137 -147.8370
18.872934 90.147 -148.2116
19.009695 90.158 -148.5840
19.147447 90.169 -148.9551
19.286197 90.181 -149.3260
19.425953 90.192 -149.6973
19.566721 90.204 -150.0697
19.708510 90.215 -150.4436
19.851326 90.227 -150.8189
19.995177 90.238 -151.1958
20.140070 90.248 -151.5737
20.286013 90.258 -151.9523
20.433014 90.267 -152.3309
20.581080 90.276 -152.7090
20.730219 90.284 -153.0862
20.880439 90.292 -153.4619
21.031747 90.299 -153.8361
21.184152 90.306 -154.2085
21.337661 90.312 -154.5794
21.492282 90.319 -154.9489
21.648024 90.325 -155.3175
21.804895 90.330 -155.6854
21.962902 90.336 -156.0530
22.122054 90.341 -156.4206
22.282360 90.346 -156.7883
22.443827 90.350 -157.1560
22.606464 90.354 -157.5236
22.770280 90.358 -157.8908
22.935283 90.361 -158.2572
23.101481 90.363 -158.6224
23.268884 90.366 -158.9860
23.437500 90.367 -159.3475
23.607338 90.369 -159.7067
23.778406 90.370 -160.0634
23.950714 90.370 -160.4175
24.124271 90.371 -160.7691
24.299086 90.372 -161.1184
24.475167 90.373 -161.4659
24.652524 90.374 -161.8122
24.831166 90.375 -162.1577
25.011103 90.377 -162.5030
25.192344 90.378 -162.8489
25.374898 90.380 -163.1958
25.558775 90.381 -163.5440
25.743984 90.383 -163.8937
25.930536 90.384 -164.2449
26.118439 90.385 -164.5974
26.307704 90.385 -164.9507
26.498341 90.385 -165.3043
26.690359 90.385 -165.6576
26.883768 90.384 -166.0101
27.078579 90.382 -166.3614
27.274801 90.380 -166.7111
27.472446 90.378 -167.0591
27.671522 90.376 -167.4055
27.872042 90.373 -167.7502
28.074014 90.369 -168.0934
28.277450 90.366 -168.4352
28.482360 90.362 -168.7755
28.688755 90.358 -169.1144
28.896645 90.353 -169.4516
29.106042 90.348 -169.7869
29.316957 90.342 -170.1202
29.529400 90.337 -170.4513
29.743382 90.330 -170.7802
29.958915 90.324 -171.1069
30.176009 90.317 -171.4317
30.394677 90.310 -171.7546
30.614929 90.303 -172.0759
30.836778 90.296 -172.3957
31.060234 90.288 -172.7140
31.285309 90.280 -173.0308
31.512015 90.272 -173.3459
31.740364 90.263 -173.6593
31.970368 90.255 -173.9711
32.202039 90.246 -174.2813
32.435388 90.238 -174.5903
32.670428 90.229 -174.8986
32.907171 90.220 -175.2068
33.145630 90.212 -175.5154
33.385817 90.203 -175.8249
33.627745 90.194 -176.1354
33.871425 90.185 -176.4469
34.116871 90.175 -176.7589
34.364096 90.165 -177.0707
34.613113 90.155 -177.3818
34.863934 90.144 -177.6914
35.116572 90.133 -177.9990
35.371041 90.121 -178.3044
35.627354 90.109 -178.6074
35.885525 90.097 -178.9083
36.145566 90.085 -179.2072
36.407492 90.072 -179.5043
36.671316 90.060 -179.7997
36.937051 90.047 179.9065
37.204712 90.035 179.6140
37.474313 90.022 179.3225
37.745867 90.009 179.0319
38.019389 89.996 178.7418
38.294893 89.982 178.4519
38.572394 89.969 178.1624
38.851905 89.954 177.8734
39.133442 89.940 177.5856
39.417019 89.925 177.2992
39.702651 89.910 177.0146
39.990353 89.895 176.7315
40.280140 89.880 176.4494
40.572026 89.864 176.1674
40.866028 89.849 175.8849
41.162160 89.833 175.6013
41.460438 89.817 175.3168
41.760877 89.800 175.0320
42.063494 89.783 174.7476
42.368303 89.766 174.4647
42.675322 89.747 174.1836
42.984565 89.729 173.9048
43.296048 89.710 173.6281
43.609789 89.691 173.3531
43.925804 89.672 173.0798
44.244108 89.653 172.8078
44.564719 89.633 172.5374
44.887654 89.613 172.2686
45.212928 89.593 172.0016
45.540560 89.572 171.7362
45.870565 89.552 171.4725
46.202962 89.531 171.2103
46.537768 89.510 170.9496
46.875000 89.489 170.6907
47.214676 89.467 170.4337
47.556813 89.445 170.1787
47.901429 89.423 169.9257
48.248542 89.401 169.6744
48.598171 89.379 169.4245
48.950334 89.356 169.1757
49.305048 89.334 168.9280
49.662333 89.311 168.6818
50.022206 89.287 168.4376
50.384688 89.264 168.1955
50.749796 89.240 167.9556
51.117550 89.216 167.7176
51.487969 89.192 167.4812
51.861072 89.167 167.2462
52.236879 89.142 167.0126
52.615409 89.118 166.7805
52.996681 89.092 166.5495
53.380717 89.067 166.3196
53.767536 89.042 166.0904
54.157158 89.016 165.8619
54.549603 88.989 165.6341
54.944892 88.963 165.4069
55.343045 88.936 165.1801
55.744084 88.909 164.9537
56.148028 88.881 164.7283
56.554900 88.853 164.5057
56.964720 88.824 164.2876
57.377510 88.796 164.0748
57.793291 88.768 163.8664
58.212085 88.740 163.6597
58.633914 88.714 163.4523
59.058799 88.687 163.2429
59.486764 88.660 163.0323
59.917829 88.633 162.8220
60.352019 88.606 162.6130
60.789354 88.578 162.4056
61.229859 88.551 162.1993
61.673556 88.522 161.9940
62.120468 88.494 161.7901
62.570618 88.465 161.5883
63.024031 88.436 161.3891
63.480729 88.406 161.1921
63.940736 88.376 160.9968
64.404077 88.346 160.8027
64.870776 88.316 160.6096
65.340856 88.286 160.4175
65.814343 88.255 160.2265
66.291261 88.225 160.0367
66.771635 88.194 159.8488
67.255489 88.164 159.6630
67.742850 88.133 159.4796
68.233743 88.103 159.2985
68.728193 88.074 159.1193
69.226226 88.044 158.9416
69.727867 88.015 158.7640
70.233144 87.986 158.5844
70.742083 87.956 158.4013
71.254709 87.925 158.2159
71.771050 87.892 158.0336
72.291132 87.858 157.8604
72.814984 87.822 157.7000
73.342631 87.786 157.5512
73.874102 87.751 157.4092
74.409424 87.716 157.2690
74.948626 87.681 157.1276
75.491734 87.647 156.9843
76.038779 87.612 156.8394
76.589787 87.577 156.6935
77.144788 87.542 156.5468
77.703811 87.507 156.3996
78.266885 87.472 156.2520
78.834039 87.437 156.1046
79.405303 87.402 155.9578
79.980706 87.367 155.8124
80.560280 87.332 155.6687
81.144053 87.297 155.5267
81.732056 87.261 155.3863
82.324320 87.226 155.2477
82.920876 87.190 155.1115
83.521755 87.154 154.9780
84.126988 87.118 154.8476
84.736607 87.081 154.7199
85.350643 87.046 154.5942
85.969129 87.010 154.4701
86.592097 86.974 154.3475
87.219579 86.938 154.2270
87.851608 86.903 154.1096
88.488217 86.867 153.9955
89.129439 86.832 153.8843
89.775308 86.797 153.7756
90.425856 86.761 153.6691
91.081119 86.725 153.5646
91.741131 86.689 153.4619
92.405925 86.653 153.3601
93.075536 86.616 153.2591
93.750000 86.579 153.1589
94.429351 86.542 153.0598
95.113625 86.504 152.9618
95.802858 86.466 152.8651
96.497085 86.428 152.7698
