* Measurement data measured by REW V5.31.3
* Source: Headset (CX31993 HIFI AUDIO), MICROPHONE (Master Volume), R, volume: 0.250
* Format: 256k Log Swept Sine, 1 sweep at -12.0 dBFS with no timing reference
* Dated: 01 20, 25 11:20:04 AM
* REW Settings:
*  C-weighting compensation: Off
*  Target level: 75.0 dB
* Note: ; 
* Measurement: Quarks2 No DSP L
* Smoothing: 1/12 octave
* Frequency Step: 96 ppo
* Start Frequency: 0.36621094 Hz
*
* Freq(Hz) SPL(dB) Phase(degrees)
0.366211 62.315 12.6244
0.368865 62.344 12.5378
0.371538 62.385 12.4097
0.374230 62.437 12.2519
0.376942 62.495 12.0744
0.379673 62.557 11.8843
0.382424 62.622 11.6866
0.385196 62.688 11.4842
0.387987 62.756 11.2788
0.390798 62.824 11.0713
0.393630 62.893 10.8624
0.396483 62.963 10.6524
0.399356 63.033 10.4413
0.402250 63.103 10.2293
0.405165 63.174 10.0166
0.408101 63.246 9.8030
0.411058 63.318 9.5887
0.414037 63.391 9.3738
0.417037 63.464 9.1582
0.420059 63.538 8.9419
0.423103 63.612 8.7251
0.426169 63.687 8.5077
0.429257 63.762 8.2897
0.432368 63.838 8.0713
0.435501 63.915 7.8523
0.438656 63.992 7.6329
0.441835 64.069 7.4130
0.445037 64.147 7.1927
0.448262 64.226 6.9719
0.451510 64.305 6.7508
0.454782 64.385 6.5292
0.458077 64.466 6.3073
0.461397 64.547 6.0850
0.464740 64.628 5.8622
0.468108 64.711 5.6391
0.471500 64.793 5.4157
0.474917 64.877 5.1918
0.478358 64.961 4.9675
0.481825 65.045 4.7428
0.485316 65.131 4.5178
0.488833 65.216 4.2922
0.492375 65.303 4.0663
0.495943 65.390 3.8399
0.499537 65.478 3.6130
0.503157 65.566 3.3855
0.506803 65.655 3.1576
0.510475 65.745 2.9291
0.514175 65.835 2.7000
0.517900 65.926 2.4703
0.521653 66.018 2.2399
0.525434 66.110 2.0088
0.529241 66.203 1.7770
0.533076 66.296 1.5444
0.536939 66.391 1.3110
0.540830 66.486 1.0767
0.544749 66.581 0.8415
0.548696 66.678 0.6053
0.552673 66.775 0.3680
0.556677 66.873 0.1297
0.560711 66.971 -0.1098
0.564774 67.070 -0.3504
0.568867 67.170 -0.5924
0.572989 67.271 -0.8357
0.577141 67.372 -1.0804
0.581324 67.474 -1.3267
0.585536 67.577 -1.5744
0.589779 67.681 -1.8238
0.594053 67.785 -2.0750
0.598358 67.890 -2.3279
0.602694 67.996 -2.5827
0.607061 68.103 -2.8395
0.611460 68.210 -3.0983
0.615891 68.318 -3.3593
0.620354 68.427 -3.6226
0.624849 68.537 -3.8882
0.629377 68.648 -4.1562
0.633938 68.759 -4.4268
0.638532 68.871 -4.7000
0.643159 68.984 -4.9760
0.647819 69.098 -5.2549
0.652514 69.213 -5.5367
0.657242 69.328 -5.8217
0.662005 69.444 -6.1099
0.666802 69.562 -6.4014
0.671634 69.680 -6.6964
0.676501 69.798 -6.9950
0.681403 69.918 -7.2973
0.686341 70.039 -7.6035
0.691314 70.160 -7.9137
0.696324 70.282 -8.2280
0.701370 70.405 -8.5466
0.706452 70.528 -8.8694
0.711571 70.651 -9.1966
0.716728 70.774 -9.5282
0.721921 70.895 -9.8639
0.727153 71.015 -10.2035
0.732422 71.132 -10.5465
0.737729 71.246 -10.8923
0.743075 71.357 -11.2403
0.748460 71.466 -11.5898
0.753883 71.573 -11.9404
0.759346 71.680 -12.2917
0.764849 71.785 -12.6435
0.770391 71.890 -12.9956
0.775974 71.995 -13.3479
0.781597 72.099 -13.7001
0.787261 72.203 -14.0523
0.792966 72.307 -14.4044
0.798712 72.411 -14.7563
0.804500 72.514 -15.1080
0.810329 72.618 -15.4594
0.816201 72.721 -15.8105
0.822116 72.824 -16.1612
0.828073 72.927 -16.5116
0.834074 73.029 -16.8617
0.840118 73.132 -17.2114
0.846206 73.234 -17.5608
0.852338 73.336 -17.9099
0.858514 73.438 -18.2586
0.864735 73.540 -18.6071
0.871001 73.641 -18.9554
0.877313 73.743 -19.3035
0.883670 73.844 -19.6514
0.890074 73.946 -19.9993
0.896524 74.047 -20.3472
0.903020 74.148 -20.6952
0.909564 74.248 -21.0433
0.916155 74.349 -21.3916
0.922794 74.450 -21.7403
0.929481 74.551 -22.0894
0.936216 74.651 -22.4391
0.943000 74.752 -22.7894
0.949834 74.852 -23.1405
0.956717 74.953 -23.4925
0.963649 75.053 -23.8456
0.970632 75.154 -24.1998
0.977666 75.254 -24.5554
0.984750 75.355 -24.9124
0.991886 75.456 -25.2711
0.999074 75.557 -25.6315
1.006314 75.658 -25.9940
1.013606 75.759 -26.3586
1.020951 75.860 -26.7256
1.028349 75.962 -27.0951
1.035801 76.063 -27.4674
1.043307 76.165 -27.8426
1.050867 76.268 -28.2211
1.058482 76.370 -28.6029
1.066152 76.473 -28.9884
1.073878 76.576 -29.3777
1.081660 76.680 -29.7711
1.089498 76.784 -30.1688
1.097393 76.887 -30.5709
1.105345 76.991 -30.9775
1.113355 77.095 -31.3885
1.121423 77.199 -31.8040
1.129549 77.302 -32.2236
1.137734 77.405 -32.6472
1.145979 77.508 -33.0746
1.154283 77.610 -33.5055
1.162647 77.712 -33.9396
1.171072 77.813 -34.3768
1.179558 77.914 -34.8167
1.188106 78.015 -35.2590
1.196715 78.116 -35.7037
1.205387 78.216 -36.1504
1.214122 78.316 -36.5990
1.222920 78.415 -37.0491
1.231782 78.514 -37.5007
1.240708 78.613 -37.9535
1.249699 78.711 -38.4074
1.258754 78.809 -38.8621
1.267876 78.907 -39.3175
1.277063 79.005 -39.7734
1.286318 79.102 -40.2298
1.295639 79.199 -40.6864
1.305027 79.296 -41.1431
1.314484 79.393 -41.5998
1.324009 79.490 -42.0564
1.333604 79.586 -42.5128
1.343268 79.682 -42.9689
1.353002 79.779 -43.4246
1.362806 79.875 -43.8799
1.372681 79.971 -44.3347
1.382628 80.067 -44.7889
1.392647 80.162 -45.2425
1.402739 80.258 -45.6955
1.412904 80.354 -46.1480
1.423142 80.450 -46.5999
1.433455 80.547 -47.0516
1.443843 80.643 -47.5031
1.454305 80.739 -47.9548
1.464844 80.835 -48.4072
1.475459 80.930 -48.8607
1.486150 81.026 -49.3159
1.496920 81.121 -49.7729
1.507767 81.215 -50.2321
1.518693 81.309 -50.6935
1.529698 81.403 -51.1570
1.540783 81.496 -51.6226
1.551948 81.588 -52.0902
1.563194 81.680 -52.5596
1.574521 81.772 -53.0307
1.585931 81.863 -53.5034
1.597423 81.954 -53.9775
1.608999 82.044 -54.4530
1.620658 82.133 -54.9297
1.632402 82.222 -55.4075
1.644232 82.311 -55.8864
1.656146 82.400 -56.3663
1.668147 82.488 -56.8470
1.680235 82.575 -57.3285
1.692411 82.662 -57.8108
1.704675 82.749 -58.2938
1.717028 82.836 -58.7775
1.729470 82.923 -59.2619
1.742003 83.009 -59.7469
1.754626 83.095 -60.2327
1.767341 83.181 -60.7192
1.780147 83.266 -61.2066
1.793047 83.352 -61.6952
1.806040 83.437 -62.1852
1.819128 83.522 -62.6773
1.832310 83.606 -63.1720
1.845587 83.691 -63.6699
1.858961 83.774 -64.1718
1.872432 83.858 -64.6778
1.886001 83.940 -65.1882
1.899667 84.022 -65.7027
1.913433 84.103 -66.2213
1.927299 84.184 -66.7435
1.941265 84.264 -67.2690
1.955332 84.344 -67.7973
1.969501 84.422 -68.3280
1.983773 84.500 -68.8607
1.998148 84.578 -69.3950
2.012627 84.655 -69.9304
2.027212 84.732 -70.4666
2.041902 84.808 -71.0030
2.056698 84.884 -71.5394
2.071602 84.959 -72.0752
2.086614 85.033 -72.6103
2.101734 85.108 -73.1441
2.116964 85.182 -73.6766
2.132304 85.256 -74.2074
2.147756 85.329 -74.7366
2.163320 85.402 -75.2643
2.178996 85.475 -75.7909
2.194786 85.547 -76.3172
2.210690 85.619 -76.8439
2.226710 85.690 -77.3720
2.242845 85.760 -77.9023
2.259098 85.830 -78.4350
2.275468 85.899 -78.9704
2.291957 85.967 -79.5082
2.308566 86.035 -80.0483
2.325295 86.102 -80.5903
2.342145 86.168 -81.1337
2.359117 86.234 -81.6781
2.376212 86.299 -82.2231
2.393431 86.363 -82.7681
2.410775 86.427 -83.3128
2.428244 86.491 -83.8565
2.445840 86.553 -84.3988
2.463564 86.616 -84.9394
2.481416 86.678 -85.4777
2.499397 86.740 -86.0136
2.517509 86.801 -86.5470
2.535752 86.862 -87.0778
2.554127 86.922 -87.6067
2.572635 86.982 -88.1341
2.591277 87.042 -88.6609
2.610055 87.101 -89.1877
2.628968 87.159 -89.7152
2.648019 87.216 -90.2434
2.667208 87.273 -90.7724
2.686535 87.329 -91.3022
2.706003 87.384 -91.8323
2.725612 87.439 -92.3626
2.745363 87.493 -92.8927
2.765257 87.547 -93.4221
2.785295 87.600 -93.9506
2.805478 87.653 -94.4775
2.825808 87.705 -95.0027
2.846285 87.757 -95.5257
2.866910 87.809 -96.0462
2.887685 87.860 -96.5643
2.908611 87.911 -97.0798
2.929688 87.962 -97.5932
2.950917 88.012 -98.1048
2.972301 88.062 -98.6153
2.993839 88.111 -99.1249
3.015534 88.160 -99.6341
3.037386 88.208 -100.1428
3.059396 88.255 -100.6511
3.081565 88.302 -101.1588
3.103896 88.349 -101.6657
3.126388 88.395 -102.1717
3.149043 88.441 -102.6763
3.171862 88.487 -103.1794
3.194847 88.532 -103.6807
3.217998 88.577 -104.1799
3.241317 88.622 -104.6768
3.264805 88.667 -105.1714
3.288463 88.711 -105.6637
3.312293 88.755 -106.1539
3.336295 88.799 -106.6422
3.360471 88.843 -107.1288
3.384822 88.886 -107.6142
3.409350 88.929 -108.0983
3.434056 88.971 -108.5814
3.458940 89.013 -109.0635
3.484005 89.055 -109.5447
3.509252 89.097 -110.0249
3.534681 89.139 -110.5042
3.560295 89.180 -110.9826
3.586094 89.221 -111.4601
3.612081 89.262 -111.9367
3.638255 89.303 -112.4124
3.664620 89.343 -112.8873
3.691175 89.384 -113.3615
3.717923 89.424 -113.8351
3.744864 89.464 -114.3082
3.772001 89.504 -114.7810
3.799335 89.544 -115.2534
3.826866 89.583 -115.7255
3.854597 89.623 -116.1973
3.882529 89.662 -116.6690
3.910664 89.700 -117.1404
3.939002 89.739 -117.6117
3.967546 89.777 -118.0829
3.996296 89.815 -118.5541
4.025255 89.853 -119.0253
4.054423 89.891 -119.4968
4.083804 89.928 -119.9686
4.113396 89.965 -120.4408
4.143204 90.002 -120.9134
4.173227 90.039 -121.3864
4.203468 90.075 -121.8597
4.233928 90.111 -122.3334
4.264609 90.146 -122.8073
4.295512 90.182 -123.2815
4.326639 90.216 -123.7559
4.357992 90.251 -124.2307
4.389572 90.285 -124.7059
4.421380 90.319 -125.1818
4.453419 90.352 -125.6584
4.485691 90.385 -126.1359
4.518196 90.417 -126.6142
4.550936 90.449 -127.0931
4.583914 90.480 -127.5723
4.617131 90.511 -128.0516
4.650589 90.542 -128.5308
4.684289 90.571 -129.0096
4.718233 90.601 -129.4880
4.752424 90.630 -129.9659
4.786862 90.658 -130.4436
4.821549 90.686 -130.9212
4.856488 90.713 -131.3987
4.891680 90.739 -131.8761
4.927127 90.765 -132.3532
4.962831 90.790 -132.8297
4.998794 90.815 -133.3053
5.035017 90.839 -133.7796
5.071503 90.863 -134.2523
5.108253 90.886 -134.7235
5.145270 90.909 -135.1930
5.182555 90.931 -135.6610
5.220110 90.952 -136.1275
5.257937 90.973 -136.5927
5.296038 90.994 -137.0562
5.334415 91.013 -137.5182
5.373071 91.033 -137.9781
5.412006 91.052 -138.4360
5.451224 91.070 -138.8915
5.490725 91.088 -139.3446
5.530514 91.106 -139.7953
5.570590 91.123 -140.2435
5.610957 91.140 -140.6895
5.651616 91.157 -141.1333
5.692570 91.173 -141.5748
5.733821 91.189 -142.0143
5.775370 91.204 -142.4515
5.817221 91.220 -142.8866
5.859375 91.235 -143.3194
5.901834 91.250 -143.7501
5.944602 91.264 -144.1785
5.987679 91.279 -144.6050
6.031068 91.293 -145.0296
6.074771 91.307 -145.4525
6.118792 91.321 -145.8740
6.163131 91.335 -146.2942
6.207792 91.349 -146.7132
6.252776 91.362 -147.1311
6.298086 91.376 -147.5480
6.343725 91.389 -147.9639
6.389694 91.402 -148.3789
6.435996 91.415 -148.7932
6.482634 91.428 -149.2071
6.529610 91.440 -149.6205
6.576926 91.452 -150.0338
6.624585 91.464 -150.4469
6.672590 91.476 -150.8600
6.720942 91.488 -151.2730
6.769645 91.499 -151.6859
6.818700 91.510 -152.0987
6.868111 91.521 -152.5115
6.917881 91.531 -152.9242
6.968010 91.541 -153.3369
7.018504 91.550 -153.7496
7.069362 91.560 -154.1623
7.120590 91.568 -154.5747
7.172189 91.576 -154.9868
7.224161 91.584 -155.3984
7.276511 91.591 -155.8093
7.329239 91.598 -156.2195
7.382350 91.604 -156.6288
7.435845 91.610 -157.0372
7.489729 91.615 -157.4445
7.544002 91.620 -157.8505
7.598669 91.624 -158.2551
7.653732 91.628 -158.6581
7.709194 91.632 -159.0594
7.765058 91.635 -159.4588
7.821327 91.637 -159.8564
7.878004 91.639 -160.2520
7.935091 91.641 -160.6456
7.992592 91.642 -161.0372
8.050510 91.643 -161.4266
8.108847 91.644 -161.8139
8.167607 91.644 -162.1991
8.226793 91.644 -162.5822
8.286408 91.644 -162.9634
8.346454 91.644 -163.3427
8.406936 91.643 -163.7202
8.467856 91.643 -164.0961
8.529218 91.642 -164.4704
8.591024 91.641 -164.8432
8.653278 91.639 -165.2147
8.715983 91.638 -165.5851
8.779143 91.636 -165.9545
8.842760 91.634 -166.3231
8.906839 91.632 -166.6908
8.971381 91.630 -167.0579
9.036392 91.628 -167.4244
9.101873 91.625 -167.7905
9.167829 91.622 -168.1561
9.234263 91.619 -168.5213
9.301178 91.616 -168.8862
9.368578 91.612 -169.2507
9.436467 91.608 -169.6147
9.504847 91.603 -169.9783
9.573723 91.598 -170.3414
9.643099 91.593 -170.7038
9.712976 91.587 -171.0657
9.783361 91.581 -171.4267
9.854255 91.575 -171.7869
9.925663 91.568 -172.1461
9.997588 91.561 -172.5042
10.070035 91.554 -172.8612
10.143007 91.546 -173.2169
10.216507 91.537 -173.5713
10.290540 91.529 -173.9242
10.365109 91.520 -174.2757
10.440219 91.510 -174.6257
10.515873 91.501 -174.9742
10.592076 91.491 -175.3212
10.668830 91.481 -175.6666
10.746141 91.470 -176.0105
10.824012 91.459 -176.3529
10.902447 91.448 -176.6938
10.981451 91.437 -177.0333
11.061027 91.425 -177.3714
11.141180 91.414 -177.7081
11.221913 91.401 -178.0435
11.303232 91.389 -178.3776
11.385140 91.377 -178.7104
11.467641 91.364 -179.0420
11.550741 91.351 -179.3723
11.634442 91.338 -179.7014
11.718750 91.324 179.9706
11.803669 91.310 179.6439
11.889203 91.296 179.3183
11.975357 91.282 178.9938
12.062136 91.268 178.6706
12.149543 91.253 178.3484
12.237583 91.238 178.0274
12.326262 91.223 177.7074
12.415583 91.208 177.3885
12.505552 91.193 177.0707
12.596172 91.177 176.7538
12.687449 91.161 176.4380
12.779387 91.145 176.1231
12.871992 91.128 175.8092
12.965268 91.112 175.4962
13.059220 91.095 175.1842
13.153852 91.078 174.8731
13.249170 91.060 174.5630
13.345179 91.042 174.2540
13.441884 91.024 173.9460
13.539289 91.006 173.6391
13.637401 90.988 173.3334
13.736223 90.969 173.0290
13.835761 90.950 172.7259
13.936021 90.931 172.4241
14.037007 90.911 172.1238
14.138725 90.891 171.8250
14.241180 90.871 171.5276
14.344377 90.851 171.2318
14.448323 90.830 170.9374
14.553021 90.809 170.6446
14.658478 90.788 170.3533
14.764700 90.767 170.0635
14.871691 90.745 169.7751
14.979457 90.724 169.4881
15.088005 90.702 169.2025
15.197339 90.679 168.9183
15.307465 90.657 168.6355
15.418389 90.634 168.3541
15.530117 90.612 168.0740
15.642655 90.589 167.7954
15.756008 90.565 167.5182
15.870182 90.542 167.2426
15.985184 90.518 166.9684
16.101019 90.494 166.6957
16.217694 90.470 166.4246
16.335214 90.445 166.1551
16.453586 90.420 165.8872
16.572815 90.395 165.6208
16.692909 90.370 165.3561
16.813872 90.345 165.0930
16.935713 90.319 164.8313
17.058436 90.293 164.5712
17.182048 90.267 164.3126
17.306556 90.241 164.0555
17.431967 90.215 163.7999
17.558286 90.188 163.5459
17.685521 90.161 163.2933
17.813677 90.134 163.0422
17.942762 90.107 162.7927
18.072783 90.079 162.5447
18.203746 90.052 162.2982
18.335658 90.024 162.0530
18.468526 89.996 161.8094
18.602356 89.967 161.5671
18.737156 89.939 161.3260
18.872934 89.910 161.0862
19.009695 89.881 160.8477
19.147447 89.852 160.6102
19.286197 89.823 160.3738
19.425953 89.794 160.1386
19.566721 89.764 159.9047
19.708510 89.734 159.6720
19.851326 89.704 159.4409
19.995177 89.673 159.2115
20.140070 89.642 158.9841
20.286013 89.611 158.7587
20.433014 89.580 158.5356
20.581080 89.548 158.3148
20.730219 89.517 158.0965
20.880439 89.485 157.8805
21.031747 89.453 157.6665
21.184152 89.422 157.4543
21.337661 89.390 157.2436
21.492282 89.358 157.0338
21.648024 89.327 156.8245
21.804895 89.295 156.6153
21.962902 89.264 156.4059
22.122054 89.232 156.1963
22.282360 89.199 155.9865
22.443827 89.167 155.7770
22.606464 89.134 155.5684
22.770280 89.100 155.3613
22.935283 89.066 155.1566
23.101481 89.031 154.9552
23.268884 88.996 154.7578
23.437500 88.961 154.5646
23.607338 88.926 154.3759
23.778406 88.890 154.1913
23.950714 88.855 154.0101
24.124271 88.821 153.8312
24.299086 88.786 153.6537
24.475167 88.752 153.4765
24.652524 88.718 153.2988
24.831166 88.684 153.1201
25.011103 88.649 152.9406
25.192344 88.614 152.7609
25.374898 88.579 152.5820
25.558775 88.543 152.4054
25.743984 88.506 152.2321
25.930536 88.469 152.0632
26.118439 88.432 151.8992
26.307704 88.396 151.7397
26.498341 88.359 151.5840
26.690359 88.323 151.4304
26.883768 88.288 151.2770
27.078579 88.252 151.1221
27.274801 88.218 150.9643
27.472446 88.183 150.8027
27.671522 88.147 150.6375
27.872042 88.111 150.4696
28.074014 88.074 150.3008
28.277450 88.036 150.1331
28.482360 87.997 149.9688
28.688755 87.957 149.8096
28.896645 87.917 149.6567
29.106042 87.876 149.5107
29.316957 87.836 149.3709
29.529400 87.795 149.2366
29.743382 87.756 149.1062
29.958915 87.716 148.9783
30.176009 87.677 148.8516
30.394677 87.639 148.7253
30.614929 87.601 148.5987
30.836778 87.562 148.4719
31.060234 87.524 148.3449
31.285309 87.486 148.2182
31.512015 87.447 148.0919
31.740364 87.408 147.9664
31.970368 87.369 147.8420
32.202039 87.330 147.7189
32.435388 87.291 147.5972
32.670428 87.252 147.4770
32.907171 87.212 147.3586
33.145630 87.172 147.2422
33.385817 87.132 147.1277
33.627745 87.092 147.0155
33.871425 87.052 146.9058
34.116871 87.012 146.7986
34.364096 86.971 146.6943
34.613113 86.931 146.5931
34.863934 86.890 146.4949
35.116572 86.850 146.3998
35.371041 86.809 146.3073
35.627354 86.769 146.2169
35.885525 86.729 146.1277
36.145566 86.689 146.0393
36.407492 86.650 145.9513
36.671316 86.610 145.8636
36.937051 86.570 145.7766
37.204712 86.530 145.6905
37.474313 86.490 145.6058
37.745867 86.450 145.5229
38.019389 86.409 145.4417
38.294893 86.369 145.3619
38.572394 86.329 145.2834
38.851905 86.288 145.2060
39.133442 86.247 145.1300
39.417019 86.206 145.0558
39.702651 86.165 144.9838
39.990353 86.124 144.9144
40.280140 86.083 144.8477
40.572026 86.042 144.7833
40.866028 86.001 144.7208
41.162160 85.960 144.6599
41.460438 85.919 144.6003
41.760877 85.878 144.5420
42.063494 85.836 144.4854
42.368303 85.795 144.4309
42.675322 85.754 144.3785
42.984565 85.713 144.3282
43.296048 85.671 144.2796
43.609789 85.630 144.2321
43.925804 85.589 144.1856
44.244108 85.548 144.1399
44.564719 85.507 144.0953
44.887654 85.466 144.0521
45.212928 85.425 144.0104
45.540560 85.384 143.9704
45.870565 85.343 143.9317
46.202962 85.302 143.8940
46.537768 85.261 143.8569
46.875000 85.220 143.8208
47.214676 85.179 143.7859
47.556813 85.138 143.7527
47.901429 85.097 143.7219
48.248542 85.056 143.6937
48.598171 85.015 143.6682
48.950334 84.974 143.6450
49.305048 84.933 143.6238
49.662333 84.892 143.6044
50.022206 84.851 143.5865
50.384688 84.811 143.5701
50.749796 84.770 143.5550
51.117550 84.730 143.5412
51.487969 84.689 143.5287
51.861072 84.649 143.5173
52.236879 84.608 143.5071
52.615409 84.568 143.4981
52.996681 84.528 143.4901
53.380717 84.487 143.4832
53.767536 84.447 143.4773
54.157158 84.407 143.4725
54.549603 84.367 143.4688
54.944892 84.327 143.4664
55.343045 84.287 143.4652
55.744084 84.247 143.4654
56.148028 84.207 143.4670
56.554900 84.167 143.4706
56.964720 84.127 143.4764
57.377510 84.087 143.4846
57.793291 84.048 143.4949
58.212085 84.008 143.5064
58.633914 83.969 143.5185
59.058799 83.929 143.5313
59.486764 83.889 143.5458
59.917829 83.849 143.5631
60.352019 83.809 143.5840
60.789354 83.769 143.6085
61.229859 83.729 143.6354
61.673556 83.690 143.6637
62.120468 83.651 143.6923
62.570618 83.612 143.7209
63.024031 83.573 143.7496
63.480729 83.535 143.7786
63.940736 83.496 143.8080
64.404077 83.458 143.8384
64.870776 83.420 143.8706
65.340856 83.381 143.9052
65.814343 83.343 143.9424
66.291261 83.306 143.9821
66.771635 83.268 144.0238
67.255489 83.231 144.0675
67.742850 83.195 144.1129
68.233743 83.158 144.1592
68.728193 83.122 144.2042
69.226226 83.087 144.2454
69.727867 83.051 144.2816
70.233144 83.014 144.3146
70.742083 82.975 144.3485
71.254709 82.936 144.3878
71.771050 82.896 144.4350
72.291132 82.856 144.4897
72.814984 82.817 144.5496
73.342631 82.779 144.6117
73.874102 82.741 144.6739
74.409424 82.704 144.7352
74.948626 82.667 144.7955
75.491734 82.630 144.8554
76.038779 82.594 144.9157
76.589787 82.557 144.9770
77.144788 82.521 145.0395
77.703811 82.485 145.1033
78.266885 82.450 145.1686
78.834039 82.414 145.2360
79.405303 82.378 145.3055
79.980706 82.343 145.3770
80.560280 82.308 145.4500
81.144053 82.272 145.5239
81.732056 82.237 145.5984
82.324320 82.202 145.6732
82.920876 82.168 145.7481
83.521755 82.133 145.8230
84.126988 82.099 145.8977
84.736607 82.065 145.9723
85.350643 82.031 146.0466
85.969129 81.997 146.1209
86.592097 81.963 146.1954
87.219579 81.929 146.2706
87.851608 81.896 146.3473
88.488217 81.862 146.4260
89.129439 81.828 146.5068
89.775308 81.795 146.5897
90.425856 81.761 146.6744
91.081119 81.728 146.7607
91.741131 81.695 146.8481
