* Measurement data measured by REW V5.31.3
* Source: Headset (CX31993 HIFI AUDIO), MICROPHONE (Master Volume), R, volume: 0.250
* Format: 256k Log Swept Sine, 1 sweep at -12.0 dBFS with no timing reference
* Dated: 01 11, 25 3:44:03 PM
* REW Settings:
*  C-weighting compensation: Off
*  Target level: 75.0 dB
* Note: ; 
* Measurement: Softears Volume S low L
* Smoothing: 1/12 octave
* Frequency Step: 96 ppo
* Start Frequency: 0.36621094 Hz
*
* Freq(Hz) SPL(dB) Phase(degrees)
0.366211 55.518 -58.4223
0.368865 55.531 -58.5510
0.371538 55.549 -58.7430
0.374230 55.572 -58.9827
0.376942 55.598 -59.2566
0.379673 55.626 -59.5550
0.382424 55.654 -59.8712
0.385196 55.684 -60.2014
0.387987 55.714 -60.5432
0.390798 55.744 -60.8953
0.393630 55.775 -61.2571
0.396483 55.806 -61.6282
0.399356 55.837 -62.0086
0.402250 55.869 -62.3982
0.405165 55.900 -62.7970
0.408101 55.932 -63.2050
0.411058 55.964 -63.6223
0.414037 55.997 -64.0489
0.417037 56.029 -64.4849
0.420059 56.062 -64.9302
0.423103 56.095 -65.3849
0.426169 56.129 -65.8491
0.429257 56.162 -66.3227
0.432368 56.196 -66.8057
0.435501 56.230 -67.2981
0.438656 56.264 -67.8000
0.441835 56.299 -68.3112
0.445037 56.334 -68.8319
0.448262 56.369 -69.3619
0.451510 56.404 -69.9012
0.454782 56.439 -70.4498
0.458077 56.475 -71.0076
0.461397 56.511 -71.5745
0.464740 56.548 -72.1505
0.468108 56.584 -72.7355
0.471500 56.621 -73.3294
0.474917 56.658 -73.9320
0.478358 56.696 -74.5433
0.481825 56.733 -75.1631
0.485316 56.771 -75.7914
0.488833 56.810 -76.4279
0.492375 56.848 -77.0726
0.495943 56.887 -77.7252
0.499537 56.926 -78.3857
0.503157 56.965 -79.0538
0.506803 57.005 -79.7293
0.510475 57.045 -80.4121
0.514175 57.085 -81.1020
0.517900 57.125 -81.7987
0.521653 57.166 -82.5021
0.525434 57.207 -83.2119
0.529241 57.249 -83.9280
0.533076 57.290 -84.6500
0.536939 57.332 -85.3778
0.540830 57.375 -86.1112
0.544749 57.417 -86.8498
0.548696 57.460 -87.5935
0.552673 57.503 -88.3421
0.556677 57.547 -89.0952
0.560711 57.591 -89.8526
0.564774 57.635 -90.6141
0.568867 57.679 -91.3795
0.572989 57.724 -92.1485
0.577141 57.769 -92.9209
0.581324 57.815 -93.6965
0.585536 57.861 -94.4749
0.589779 57.907 -95.2561
0.594053 57.953 -96.0397
0.598358 58.000 -96.8256
0.602694 58.047 -97.6136
0.607061 58.094 -98.4034
0.611460 58.142 -99.1949
0.615891 58.190 -99.9879
0.620354 58.239 -100.7822
0.624849 58.288 -101.5776
0.629377 58.337 -102.3740
0.633938 58.387 -103.1713
0.638532 58.437 -103.9693
0.643159 58.487 -104.7679
0.647819 58.537 -105.5669
0.652514 58.589 -106.3663
0.657242 58.640 -107.1660
0.662005 58.692 -107.9659
0.666802 58.744 -108.7659
0.671634 58.796 -109.5659
0.676501 58.849 -110.3660
0.681403 58.903 -111.1661
0.686341 58.956 -111.9661
0.691314 59.011 -112.7660
0.696324 59.065 -113.5659
0.701370 59.121 -114.3657
0.706452 59.177 -115.1654
0.711571 59.234 -115.9649
0.716728 59.293 -116.7642
0.721921 59.354 -117.5631
0.727153 59.419 -118.3613
0.732422 59.487 -119.1582
0.737729 59.560 -119.9534
0.743075 59.637 -120.7460
0.748460 59.719 -121.5355
0.753883 59.803 -122.3211
0.759346 59.891 -123.1022
0.764849 59.981 -123.8785
0.770391 60.074 -124.6495
0.775974 60.168 -125.4149
0.781597 60.265 -126.1742
0.787261 60.364 -126.9274
0.792966 60.465 -127.6741
0.798712 60.568 -128.4142
0.804500 60.673 -129.1475
0.810329 60.780 -129.8738
0.816201 60.889 -130.5931
0.822116 60.999 -131.3053
0.828073 61.112 -132.0103
0.834074 61.227 -132.7081
0.840118 61.343 -133.3987
0.846206 61.461 -134.0822
0.852338 61.581 -134.7586
0.858514 61.703 -135.4279
0.864735 61.826 -136.0903
0.871001 61.951 -136.7457
0.877313 62.077 -137.3945
0.883670 62.205 -138.0367
0.890074 62.335 -138.6724
0.896524 62.466 -139.3018
0.903020 62.598 -139.9252
0.909564 62.731 -140.5426
0.916155 62.866 -141.1543
0.922794 63.002 -141.7605
0.929481 63.139 -142.3615
0.936216 63.277 -142.9574
0.943000 63.416 -143.5485
0.949834 63.556 -144.1350
0.956717 63.697 -144.7173
0.963649 63.838 -145.2954
0.970632 63.980 -145.8699
0.977666 64.123 -146.4407
0.984750 64.265 -147.0084
0.991886 64.409 -147.5731
0.999074 64.552 -148.1351
1.006314 64.695 -148.6947
1.013606 64.839 -149.2522
1.020951 64.982 -149.8078
1.028349 65.124 -150.3620
1.035801 65.267 -150.9149
1.043307 65.409 -151.4668
1.050867 65.550 -152.0180
1.058482 65.690 -152.5688
1.066152 65.830 -153.1194
1.073878 65.968 -153.6699
1.081660 66.105 -154.2203
1.089498 66.242 -154.7706
1.097393 66.378 -155.3205
1.105345 66.513 -155.8695
1.113355 66.647 -156.4172
1.121423 66.781 -156.9631
1.129549 66.916 -157.5068
1.137734 67.050 -158.0480
1.145979 67.184 -158.5867
1.154283 67.318 -159.1226
1.162647 67.453 -159.6556
1.171072 67.587 -160.1859
1.179558 67.722 -160.7132
1.188106 67.856 -161.2377
1.196715 67.991 -161.7594
1.205387 68.126 -162.2783
1.214122 68.261 -162.7944
1.222920 68.396 -163.3078
1.231782 68.531 -163.8186
1.240708 68.666 -164.3267
1.249699 68.802 -164.8323
1.258754 68.937 -165.3355
1.267876 69.072 -165.8363
1.277063 69.208 -166.3348
1.286318 69.343 -166.8312
1.295639 69.479 -167.3255
1.305027 69.615 -167.8179
1.314484 69.750 -168.3084
1.324009 69.886 -168.7972
1.333604 70.022 -169.2843
1.343268 70.158 -169.7701
1.353002 70.294 -170.2545
1.362806 70.430 -170.7377
1.372681 70.566 -171.2199
1.382628 70.702 -171.7011
1.392647 70.838 -172.1816
1.402739 70.974 -172.6615
1.412904 71.111 -173.1408
1.423142 71.247 -173.6197
1.433455 71.383 -174.0982
1.443843 71.520 -174.5762
1.454305 71.656 -175.0537
1.464844 71.792 -175.5303
1.475459 71.928 -176.0057
1.486150 72.063 -176.4795
1.496920 72.199 -176.9515
1.507767 72.334 -177.4215
1.518693 72.468 -177.8895
1.529698 72.603 -178.3555
1.540783 72.736 -178.8196
1.551948 72.870 -179.2820
1.563194 73.003 -179.7430
1.574521 73.136 179.7975
1.585931 73.268 179.3390
1.597423 73.400 178.8813
1.608999 73.532 178.4243
1.620658 73.664 177.9678
1.632402 73.795 177.5113
1.644232 73.926 177.0547
1.656146 74.056 176.5977
1.668147 74.187 176.1401
1.680235 74.317 175.6816
1.692411 74.447 175.2219
1.704675 74.577 174.7606
1.717028 74.707 174.2976
1.729470 74.837 173.8325
1.742003 74.966 173.3651
1.754626 75.096 172.8950
1.767341 75.225 172.4219
1.780147 75.355 171.9457
1.793047 75.484 171.4661
1.806040 75.614 170.9830
1.819128 75.743 170.4963
1.832310 75.872 170.0062
1.845587 76.001 169.5128
1.858961 76.129 169.0165
1.872432 76.257 168.5176
1.886001 76.385 168.0164
1.899667 76.512 167.5134
1.913433 76.639 167.0086
1.927299 76.765 166.5024
1.941265 76.890 165.9949
1.955332 77.015 165.4863
1.969501 77.140 164.9768
1.983773 77.264 164.4664
1.998148 77.387 163.9552
2.012627 77.511 163.4434
2.027212 77.633 162.9309
2.041902 77.756 162.4178
2.056698 77.878 161.9040
2.071602 77.999 161.3896
2.086614 78.121 160.8744
2.101734 78.242 160.3585
2.116964 78.363 159.8416
2.132304 78.483 159.3236
2.147756 78.604 158.8044
2.163320 78.724 158.2836
2.178996 78.844 157.7610
2.194786 78.963 157.2362
2.210690 79.082 156.7090
2.226710 79.201 156.1791
2.242845 79.318 155.6464
2.259098 79.436 155.1110
2.275468 79.552 154.5731
2.291957 79.668 154.0330
2.308566 79.784 153.4908
2.325295 79.898 152.9470
2.342145 80.012 152.4018
2.359117 80.126 151.8555
2.376212 80.238 151.3083
2.393431 80.351 150.7606
2.410775 80.462 150.2125
2.428244 80.574 149.6641
2.445840 80.684 149.1157
2.463564 80.794 148.5672
2.481416 80.904 148.0187
2.499397 81.014 147.4702
2.517509 81.122 146.9215
2.535752 81.231 146.3722
2.554127 81.339 145.8218
2.572635 81.446 145.2699
2.591277 81.553 144.7158
2.610055 81.659 144.1592
2.628968 81.764 143.5999
2.648019 81.868 143.0380
2.667208 81.972 142.4737
2.686535 82.075 141.9075
2.706003 82.177 141.3396
2.725612 82.278 140.7706
2.745363 82.379 140.2009
2.765257 82.479 139.6309
2.785295 82.578 139.0611
2.805478 82.676 138.4917
2.825808 82.774 137.9232
2.846285 82.872 137.3556
2.866910 82.969 136.7891
2.887685 83.065 136.2235
2.908611 83.161 135.6585
2.929688 83.256 135.0934
2.950917 83.350 134.5277
2.972301 83.444 133.9607
2.993839 83.537 133.3919
3.015534 83.628 132.8213
3.037386 83.719 132.2490
3.059396 83.810 131.6754
3.081565 83.899 131.1010
3.103896 83.987 130.5263
3.126388 84.075 129.9519
3.149043 84.162 129.3784
3.171862 84.249 128.8062
3.194847 84.334 128.2358
3.217998 84.420 127.6677
3.241317 84.504 127.1019
3.264805 84.588 126.5383
3.288463 84.672 125.9768
3.312293 84.755 125.4166
3.336295 84.837 124.8571
3.360471 84.918 124.2978
3.384822 84.998 123.7385
3.409350 85.078 123.1791
3.434056 85.157 122.6199
3.458940 85.235 122.0612
3.484005 85.312 121.5035
3.509252 85.389 120.9471
3.534681 85.465 120.3926
3.560295 85.540 119.8403
3.586094 85.615 119.2907
3.612081 85.690 118.7438
3.638255 85.764 118.1997
3.664620 85.838 117.6581
3.691175 85.911 117.1186
3.717923 85.983 116.5808
3.744864 86.055 116.0443
3.772001 86.126 115.5089
3.799335 86.196 114.9747
3.826866 86.266 114.4419
3.854597 86.336 113.9106
3.882529 86.405 113.3812
3.910664 86.473 112.8539
3.939002 86.541 112.3289
3.967546 86.609 111.8065
3.996296 86.677 111.2867
4.025255 86.744 110.7695
4.054423 86.811 110.2547
4.083804 86.877 109.7421
4.113396 86.943 109.2313
4.143204 87.009 108.7222
4.173227 87.074 108.2147
4.203468 87.139 107.7086
4.233928 87.204 107.2040
4.264609 87.268 106.7007
4.295512 87.333 106.1989
4.326639 87.396 105.6985
4.357992 87.460 105.1994
4.389572 87.524 104.7016
4.421380 87.587 104.2051
4.453419 87.650 103.7096
4.485691 87.713 103.2151
4.518196 87.776 102.7214
4.550936 87.838 102.2284
4.583914 87.901 101.7358
4.617131 87.962 101.2437
4.650589 88.024 100.7519
4.684289 88.086 100.2602
4.718233 88.147 99.7685
4.752424 88.208 99.2766
4.786862 88.269 98.7845
4.821549 88.329 98.2921
4.856488 88.390 97.7992
4.891680 88.450 97.3059
4.927127 88.510 96.8121
4.962831 88.569 96.3178
4.998794 88.628 95.8230
5.035017 88.687 95.3275
5.071503 88.745 94.8314
5.108253 88.803 94.3344
5.145270 88.860 93.8364
5.182555 88.917 93.3372
5.220110 88.974 92.8368
5.257937 89.030 92.3353
5.296038 89.085 91.8329
5.334415 89.140 91.3298
5.373071 89.195 90.8263
5.412006 89.249 90.3224
5.451224 89.302 89.8183
5.490725 89.354 89.3138
5.530514 89.406 88.8089
5.570590 89.457 88.3034
5.610957 89.507 87.7975
5.651616 89.557 87.2913
5.692570 89.606 86.7854
5.733821 89.654 86.2802
5.775370 89.702 85.7759
5.817221 89.748 85.2731
5.859375 89.794 84.7716
5.901834 89.839 84.2716
5.944602 89.884 83.7729
5.987679 89.927 83.2757
6.031068 89.970 82.7802
6.074771 90.012 82.2868
6.118792 90.054 81.7961
6.163131 90.094 81.3083
6.207792 90.134 80.8239
6.252776 90.174 80.3429
6.298086 90.212 79.8652
6.343725 90.250 79.3910
6.389694 90.288 78.9202
6.435996 90.325 78.4530
6.482634 90.362 77.9897
6.529610 90.398 77.5304
6.576926 90.434 77.0754
6.624585 90.469 76.6246
6.672590 90.505 76.1782
6.720942 90.540 75.7358
6.769645 90.575 75.2974
6.818700 90.609 74.8628
6.868111 90.644 74.4317
6.917881 90.679 74.0042
6.968010 90.714 73.5799
7.018504 90.748 73.1590
7.069362 90.783 72.7411
7.120590 90.818 72.3260
7.172189 90.853 71.9132
7.224161 90.889 71.5022
7.276511 90.924 71.0927
7.329239 90.960 70.6844
7.382350 90.995 70.2769
7.435845 91.031 69.8701
7.489729 91.068 69.4637
7.544002 91.104 69.0573
7.598669 91.140 68.6505
7.653732 91.177 68.2428
7.709194 91.213 67.8340
7.765058 91.250 67.4240
7.821327 91.286 67.0125
7.878004 91.322 66.5997
7.935091 91.358 66.1852
7.992592 91.394 65.7692
8.050510 91.430 65.3514
8.108847 91.465 64.9319
8.167607 91.499 64.5109
8.226793 91.534 64.0883
8.286408 91.567 63.6647
8.346454 91.601 63.2403
8.406936 91.633 62.8154
8.467856 91.665 62.3902
8.529218 91.696 61.9650
8.591024 91.726 61.5401
8.653278 91.756 61.1161
8.715983 91.785 60.6936
8.779143 91.814 60.2729
8.842760 91.841 59.8543
8.906839 91.868 59.4383
8.971381 91.894 59.0251
9.036392 91.920 58.6151
9.101873 91.945 58.2086
9.167829 91.970 57.8061
9.234263 91.994 57.4075
9.301178 92.018 57.0131
9.368578 92.042 56.6228
9.436467 92.065 56.2366
9.504847 92.089 55.8545
9.573723 92.112 55.4763
9.643099 92.135 55.1020
9.712976 92.158 54.7311
9.783361 92.182 54.3634
9.854255 92.205 53.9985
9.925663 92.229 53.6359
9.997588 92.253 53.2754
10.070035 92.276 52.9164
10.143007 92.300 52.5587
10.216507 92.325 52.2018
10.290540 92.349 51.8452
10.365109 92.373 51.4888
10.440219 92.397 51.1323
10.515873 92.421 50.7755
10.592076 92.445 50.4182
10.668830 92.469 50.0606
10.746141 92.492 49.7025
10.824012 92.515 49.3441
10.902447 92.538 48.9857
10.981451 92.560 48.6275
11.061027 92.582 48.2698
11.141180 92.603 47.9130
11.221913 92.624 47.5575
11.303232 92.644 47.2037
11.385140 92.664 46.8521
11.467641 92.683 46.5029
11.550741 92.701 46.1567
11.634442 92.719 45.8136
11.718750 92.737 45.4740
11.803669 92.754 45.1380
11.889203 92.771 44.8057
11.975357 92.788 44.4772
12.062136 92.805 44.1523
12.149543 92.822 43.8308
12.237583 92.838 43.5127
12.326262 92.855 43.1976
12.415583 92.872 42.8852
12.505552 92.888 42.5751
12.596172 92.905 42.2671
12.687449 92.922 41.9608
12.779387 92.938 41.6559
12.871992 92.955 41.3522
12.965268 92.972 41.0496
13.059220 92.988 40.7479
13.153852 93.005 40.4472
13.249170 93.021 40.1475
13.345179 93.037 39.8489
13.441884 93.053 39.5516
13.539289 93.068 39.2559
13.637401 93.084 38.9618
13.736223 93.099 38.6697
13.835761 93.114 38.3796
13.936021 93.128 38.0917
14.037007 93.143 37.8059
14.138725 93.158 37.5223
14.241180 93.173 37.2405
14.344377 93.187 36.9603
14.448323 93.202 36.6813
14.553021 93.217 36.4030
14.658478 93.233 36.1249
14.764700 93.248 35.8465
14.871691 93.264 35.5671
14.979457 93.279 35.2864
15.088005 93.295 35.0038
15.197339 93.310 34.7192
15.307465 93.326 34.4323
15.418389 93.341 34.1432
15.530117 93.355 33.8521
15.642655 93.369 33.5593
15.756008 93.383 33.2654
15.870182 93.395 32.9709
15.985184 93.407 32.6765
16.101019 93.419 32.3831
16.217694 93.430 32.0912
16.335214 93.440 31.8014
16.453586 93.449 31.5144
16.572815 93.459 31.2303
16.692909 93.468 30.9495
16.813872 93.477 30.6718
16.935713 93.486 30.3971
17.058436 93.495 30.1249
17.182048 93.504 29.8547
17.306556 93.513 29.5858
17.431967 93.522 29.3175
17.558286 93.532 29.0493
17.685521 93.542 28.7805
17.813677 93.551 28.5108
17.942762 93.561 28.2397
18.072783 93.570 27.9674
18.203746 93.580 27.6938
18.335658 93.588 27.4194
18.468526 93.597 27.1448
18.602356 93.605 26.8704
18.737156 93.612 26.5971
18.872934 93.619 26.3256
19.009695 93.626 26.0565
19.147447 93.632 25.7905
19.286197 93.638 25.5280
19.425953 93.644 25.2690
19.566721 93.650 25.0138
19.708510 93.656 24.7618
19.851326 93.662 24.5128
19.995177 93.669 24.2660
20.140070 93.676 24.0206
20.286013 93.683 23.7758
20.433014 93.691 23.5308
20.581080 93.699 23.2848
20.730219 93.708 23.0374
20.880439 93.716 22.7880
21.031747 93.724 22.5367
21.184152 93.732 22.2836
21.337661 93.740 22.0291
21.492282 93.747 21.7739
21.648024 93.754 21.5188
21.804895 93.760 21.2646
21.962902 93.765 21.0125
22.122054 93.770 20.7631
22.282360 93.775 20.5170
22.443827 93.779 20.2747
22.606464 93.784 20.0363
22.770280 93.788 19.8017
22.935283 93.792 19.5704
23.101481 93.797 19.3419
23.268884 93.802 19.1155
23.437500 93.807 18.8902
23.607338 93.813 18.6654
23.778406 93.819 18.4404
23.950714 93.824 18.2148
24.124271 93.830 17.9880
24.299086 93.836 17.7601
24.475167 93.842 17.5310
24.652524 93.848 17.3006
24.831166 93.853 17.0692
25.011103 93.858 16.8368
25.192344 93.863 16.6037
25.374898 93.867 16.3701
25.558775 93.871 16.1362
25.743984 93.875 15.9022
25.930536 93.878 15.6687
26.118439 93.881 15.4359
26.307704 93.883 15.2045
26.498341 93.885 14.9747
26.690359 93.886 14.7473
26.883768 93.888 14.5223
27.078579 93.889 14.2999
27.274801 93.890 14.0800
27.472446 93.891 13.8622
27.671522 93.893 13.6460
27.872042 93.894 13.4308
28.074014 93.896 13.2161
28.277450 93.897 13.0011
28.482360 93.899 12.7858
28.688755 93.901 12.5698
28.896645 93.902 12.3533
29.106042 93.904 12.1367
29.316957 93.905 11.9203
29.529400 93.906 11.7047
29.743382 93.907 11.4902
29.958915 93.907 11.2771
30.176009 93.907 11.0656
30.394677 93.908 10.8555
30.614929 93.908 10.6469
30.836778 93.908 10.4396
31.060234 93.908 10.2335
31.285309 93.909 10.0284
31.512015 93.909 9.8241
31.740364 93.909 9.6205
31.970368 93.909 9.4175
32.202039 93.909 9.2150
32.435388 93.909 9.0125
32.670428 93.909 8.8099
32.907171 93.909 8.6071
33.145630 93.909 8.4038
33.385817 93.908 8.2002
33.627745 93.907 7.9964
33.871425 93.906 7.7927
34.116871 93.905 7.5896
34.364096 93.903 7.3872
34.613113 93.901 7.1858
34.863934 93.899 6.9852
35.116572 93.897 6.7853
35.371041 93.895 6.5856
35.627354 93.893 6.3857
35.885525 93.891 6.1854
36.145566 93.889 5.9844
36.407492 93.886 5.7828
36.671316 93.884 5.5809
36.937051 93.881 5.3792
37.204712 93.878 5.1780
37.474313 93.875 4.9774
37.745867 93.872 4.7773
38.019389 93.869 4.5776
38.294893 93.867 4.3777
38.572394 93.864 4.1774
38.851905 93.861 3.9764
39.133442 93.858 3.7753
39.417019 93.855 3.5746
39.702651 93.851 3.3753
39.990353 93.847 3.1783
40.280140 93.843 2.9840
40.572026 93.839 2.7924
40.866028 93.835 2.6028
41.162160 93.831 2.4147
41.460438 93.826 2.2273
41.760877 93.822 2.0405
42.063494 93.818 1.8544
42.368303 93.813 1.6691
42.675322 93.808 1.4850
42.984565 93.803 1.3018
43.296048 93.797 1.1193
43.609789 93.791 0.9368
43.925804 93.786 0.7540
44.244108 93.779 0.5707
44.564719 93.773 0.3861
44.887654 93.766 0.1997
45.212928 93.759 0.0106
45.540560 93.751 -0.1815
45.870565 93.743 -0.3759
46.202962 93.733 -0.5696
46.537768 93.722 -0.7583
46.875000 93.711 -0.9378
47.214676 93.700 -1.1062
47.556813 93.690 -1.2654
47.901429 93.683 -1.4215
48.248542 93.678 -1.5824
48.598171 93.675 -1.7551
48.950334 93.672 -1.9427
49.305048 93.669 -2.1435
49.662333 93.665 -2.3519
50.022206 93.659 -2.5620
50.384688 93.652 -2.7689
50.749796 93.645 -2.9711
51.117550 93.637 -3.1687
51.487969 93.630 -3.3630
51.861072 93.622 -3.5546
52.236879 93.614 -3.7434
52.615409 93.606 -3.9290
52.996681 93.597 -4.1113
53.380717 93.588 -4.2909
53.767536 93.579 -4.4685
54.157158 93.570 -4.6447
54.549603 93.561 -4.8196
54.944892 93.551 -4.9935
55.343045 93.542 -5.1667
55.744084 93.532 -5.3403
56.148028 93.521 -5.5146
56.554900 93.511 -5.6901
56.964720 93.500 -5.8663
57.377510 93.489 -6.0428
57.793291 93.478 -6.2196
58.212085 93.467 -6.3968
58.633914 93.456 -6.5752
59.058799 93.445 -6.7548
59.486764 93.434 -6.9348
59.917829 93.422 -7.1136
60.352019 93.410 -7.2900
60.789354 93.398 -7.4639
61.229859 93.387 -7.6361
61.673556 93.375 -7.8079
62.120468 93.364 -7.9802
62.570618 93.352 -8.1527
63.024031 93.340 -8.3250
63.480729 93.327 -8.4965
63.940736 93.315 -8.6673
64.404077 93.302 -8.8378
64.870776 93.288 -9.0081
65.340856 93.275 -9.1782
65.814343 93.261 -9.3483
66.291261 93.247 -9.5183
66.771635 93.233 -9.6888
67.255489 93.219 -9.8596
67.742850 93.204 -10.0306
68.233743 93.189 -10.2013
68.728193 93.174 -10.3712
69.226226 93.159 -10.5399
69.727867 93.144 -10.7075
70.233144 93.128 -10.8741
70.742083 93.113 -11.0399
71.254709 93.097 -11.2053
71.771050 93.081 -11.3705
72.291132 93.065 -11.5356
72.814984 93.049 -11.7009
73.342631 93.032 -11.8663
73.874102 93.016 -12.0316
74.409424 92.998 -12.1967
74.948626 92.981 -12.3614
75.491734 92.963 -12.5256
76.038779 92.945 -12.6891
76.589787 92.927 -12.8511
77.144788 92.909 -13.0116
77.703811 92.890 -13.1705
78.266885 92.872 -13.3282
78.834039 92.853 -13.4852
79.405303 92.834 -13.6418
79.980706 92.815 -13.7980
80.560280 92.796 -13.9535
81.144053 92.776 -14.1084
81.732056 92.756 -14.2629
82.324320 92.736 -14.4173
82.920876 92.715 -14.5720
83.521755 92.694 -14.7267
84.126988 92.673 -14.8812
84.736607 92.652 -15.0349
85.350643 92.630 -15.1871
85.969129 92.608 -15.3374
86.592097 92.585 -15.4846
87.219579 92.563 -15.6287
87.851608 92.541 -15.7709
88.488217 92.519 -15.9141
89.129439 92.497 -16.0611
89.775308 92.475 -16.2115
90.425856 92.451 -16.3612
91.081119 92.426 -16.5057
91.741131 92.400 -16.6430
92.405925 92.375 -16.7748
93.075536 92.350 -16.9036
93.750000 92.326 -17.0308
94.429351 92.301 -17.1572
95.113625 92.277 -17.2830
95.802858 92.253 -17.4079
96.497085 92.228 -17.5318
97.196342 92.204 -17.6544
97.900667 92.179 -17.7759
98.610096 92.154 -17.8976
99.324665 92.130 -18.0205
100.044413 92.104 -18.1449
100.769376 92.078 -18.2700
