* Measurement data measured by REW V5.31.3
* Source: Headset (CX31993 HIFI AUDIO), MICROPHONE (Master Volume), R, volume: 0.250
* Format: 256k Log Swept Sine, 1 sweep at -12.0 dBFS with no timing reference
* Dated: 12 31, 24 12:58:42 PM
* REW Settings:
*  C-weighting compensation: Off
*  Target level: 75.0 dB
* Note: ; 
* Measurement: Sony LB CB -3 L
* Smoothing: 1/12 octave
* Frequency Step: 96 ppo
* Start Frequency: 0.36621094 Hz
*
* Freq(Hz) SPL(dB) Phase(degrees)
0.366211 34.479 -69.1749
0.368865 34.499 -69.2699
0.371538 34.528 -69.4109
0.374230 34.564 -69.5856
0.376942 34.605 -69.7835
0.379673 34.648 -69.9969
0.382424 34.694 -70.2207
0.385196 34.740 -70.4517
0.387987 34.788 -70.6882
0.390798 34.836 -70.9291
0.393630 34.884 -71.1738
0.396483 34.933 -71.4221
0.399356 34.982 -71.6738
0.402250 35.032 -71.9288
0.405165 35.082 -72.1869
0.408101 35.132 -72.4483
0.411058 35.183 -72.7128
0.414037 35.234 -72.9804
0.417037 35.286 -73.2511
0.420059 35.338 -73.5248
0.423103 35.390 -73.8016
0.426169 35.442 -74.0813
0.429257 35.495 -74.3640
0.432368 35.549 -74.6497
0.435501 35.602 -74.9382
0.438656 35.657 -75.2295
0.441835 35.711 -75.5237
0.445037 35.766 -75.8206
0.448262 35.821 -76.1203
0.451510 35.877 -76.4227
0.454782 35.933 -76.7278
0.458077 35.990 -77.0355
0.461397 36.047 -77.3458
0.464740 36.104 -77.6586
0.468108 36.162 -77.9740
0.471500 36.220 -78.2918
0.474917 36.279 -78.6121
0.478358 36.338 -78.9348
0.481825 36.397 -79.2599
0.485316 36.457 -79.5872
0.488833 36.517 -79.9169
0.492375 36.578 -80.2489
0.495943 36.639 -80.5831
0.499537 36.701 -80.9195
0.503157 36.763 -81.2581
0.506803 36.826 -81.5988
0.510475 36.889 -81.9416
0.514175 36.952 -82.2866
0.517900 37.016 -82.6335
0.521653 37.080 -82.9826
0.525434 37.145 -83.3336
0.529241 37.211 -83.6866
0.533076 37.276 -84.0416
0.536939 37.343 -84.3986
0.540830 37.409 -84.7575
0.544749 37.477 -85.1183
0.548696 37.544 -85.4811
0.552673 37.613 -85.8457
0.556677 37.681 -86.2123
0.560711 37.750 -86.5808
0.564774 37.820 -86.9511
0.568867 37.890 -87.3234
0.572989 37.961 -87.6976
0.577141 38.032 -88.0737
0.581324 38.104 -88.4517
0.585536 38.176 -88.8316
0.589779 38.249 -89.2135
0.594053 38.323 -89.5973
0.598358 38.396 -89.9831
0.602694 38.471 -90.3709
0.607061 38.546 -90.7608
0.611460 38.621 -91.1527
0.615891 38.697 -91.5466
0.620354 38.774 -91.9427
0.624849 38.851 -92.3410
0.629377 38.929 -92.7414
0.633938 39.007 -93.1441
0.638532 39.086 -93.5490
0.643159 39.165 -93.9563
0.647819 39.245 -94.3660
0.652514 39.326 -94.7781
0.657242 39.407 -95.1927
0.662005 39.489 -95.6098
0.666802 39.571 -96.0296
0.671634 39.654 -96.4521
0.676501 39.737 -96.8773
0.681403 39.822 -97.3053
0.686341 39.906 -97.7362
0.691314 39.992 -98.1701
0.696324 40.077 -98.6071
0.701370 40.164 -99.0471
0.706452 40.251 -99.4902
0.711571 40.339 -99.9364
0.716728 40.427 -100.3855
0.721921 40.515 -100.8374
0.727153 40.604 -101.2917
0.732422 40.692 -101.7477
0.737729 40.781 -102.2048
0.743075 40.870 -102.6623
0.748460 40.959 -103.1195
0.753883 41.049 -103.5758
0.759346 41.139 -104.0310
0.764849 41.229 -104.4849
0.770391 41.321 -104.9372
0.775974 41.412 -105.3878
0.781597 41.504 -105.8368
0.787261 41.597 -106.2840
0.792966 41.691 -106.7294
0.798712 41.785 -107.1731
0.804500 41.880 -107.6151
0.810329 41.975 -108.0553
0.816201 42.071 -108.4938
0.822116 42.167 -108.9307
0.828073 42.265 -109.3659
0.834074 42.362 -109.7995
0.840118 42.461 -110.2317
0.846206 42.559 -110.6624
0.852338 42.659 -111.0918
0.858514 42.759 -111.5199
0.864735 42.859 -111.9468
0.871001 42.961 -112.3726
0.877313 43.062 -112.7975
0.883670 43.165 -113.2215
0.890074 43.267 -113.6447
0.896524 43.371 -114.0673
0.903020 43.475 -114.4895
0.909564 43.579 -114.9113
0.916155 43.684 -115.3328
0.922794 43.789 -115.7543
0.929481 43.895 -116.1759
0.936216 44.002 -116.5977
0.943000 44.109 -117.0200
0.949834 44.216 -117.4428
0.956717 44.324 -117.8663
0.963649 44.432 -118.2908
0.970632 44.541 -118.7163
0.977666 44.650 -119.1432
0.984750 44.760 -119.5715
0.991886 44.870 -120.0014
0.999074 44.980 -120.4332
1.006314 45.091 -120.8671
1.013606 45.202 -121.3032
1.020951 45.313 -121.7418
1.028349 45.425 -122.1831
1.035801 45.537 -122.6272
1.043307 45.650 -123.0744
1.050867 45.762 -123.5249
1.058482 45.875 -123.9788
1.066152 45.988 -124.4363
1.073878 46.102 -124.8974
1.081660 46.215 -125.3620
1.089498 46.329 -125.8299
1.097393 46.443 -126.3007
1.105345 46.558 -126.7739
1.113355 46.672 -127.2487
1.121423 46.787 -127.7247
1.129549 46.902 -128.2013
1.137734 47.018 -128.6782
1.145979 47.134 -129.1552
1.154283 47.250 -129.6320
1.162647 47.366 -130.1087
1.171072 47.483 -130.5852
1.179558 47.600 -131.0613
1.188106 47.717 -131.5371
1.196715 47.835 -132.0125
1.205387 47.953 -132.4876
1.214122 48.071 -132.9623
1.222920 48.190 -133.4367
1.231782 48.308 -133.9107
1.240708 48.427 -134.3845
1.249699 48.547 -134.8580
1.258754 48.666 -135.3313
1.267876 48.786 -135.8044
1.277063 48.906 -136.2775
1.286318 49.027 -136.7505
1.295639 49.147 -137.2235
1.305027 49.268 -137.6967
1.314484 49.389 -138.1700
1.324009 49.510 -138.6437
1.333604 49.632 -139.1178
1.343268 49.754 -139.5923
1.353002 49.876 -140.0675
1.362806 49.998 -140.5434
1.372681 50.120 -141.0202
1.382628 50.243 -141.4979
1.392647 50.366 -141.9768
1.402739 50.489 -142.4568
1.412904 50.612 -142.9382
1.423142 50.736 -143.4209
1.433455 50.860 -143.9051
1.443843 50.983 -144.3906
1.454305 51.107 -144.8773
1.464844 51.231 -145.3649
1.475459 51.355 -145.8531
1.486150 51.480 -146.3413
1.496920 51.604 -146.8294
1.507767 51.728 -147.3170
1.518693 51.852 -147.8040
1.529698 51.977 -148.2905
1.540783 52.101 -148.7764
1.551948 52.225 -149.2617
1.563194 52.349 -149.7466
1.574521 52.473 -150.2312
1.585931 52.598 -150.7156
1.597423 52.722 -151.1999
1.608999 52.846 -151.6844
1.620658 52.970 -152.1691
1.632402 53.094 -152.6543
1.644232 53.218 -153.1400
1.656146 53.342 -153.6266
1.668147 53.467 -154.1143
1.680235 53.591 -154.6031
1.692411 53.715 -155.0934
1.704675 53.839 -155.5854
1.717028 53.963 -156.0793
1.729470 54.087 -156.5753
1.742003 54.212 -157.0737
1.754626 54.336 -157.5748
1.767341 54.460 -158.0787
1.780147 54.584 -158.5858
1.793047 54.709 -159.0962
1.806040 54.833 -159.6100
1.819128 54.957 -160.1274
1.832310 55.082 -160.6484
1.845587 55.206 -161.1728
1.858961 55.329 -161.7005
1.872432 55.453 -162.2310
1.886001 55.576 -162.7642
1.899667 55.700 -163.2996
1.913433 55.822 -163.8369
1.927299 55.945 -164.3759
1.941265 56.067 -164.9163
1.955332 56.189 -165.4577
1.969501 56.311 -166.0000
1.983773 56.433 -166.5430
1.998148 56.554 -167.0864
2.012627 56.675 -167.6301
2.027212 56.796 -168.1739
2.041902 56.916 -168.7177
2.056698 57.037 -169.2615
2.071602 57.157 -169.8051
2.086614 57.277 -170.3485
2.101734 57.397 -170.8917
2.116964 57.517 -171.4346
2.132304 57.636 -171.9775
2.147756 57.756 -172.5204
2.163320 57.875 -173.0635
2.178996 57.995 -173.6072
2.194786 58.114 -174.1517
2.210690 58.232 -174.6976
2.226710 58.351 -175.2450
2.242845 58.468 -175.7943
2.259098 58.586 -176.3453
2.275468 58.703 -176.8979
2.291957 58.819 -177.4520
2.308566 58.935 -178.0070
2.325295 59.051 -178.5628
2.342145 59.166 -179.1190
2.359117 59.281 -179.6752
2.376212 59.395 179.7689
2.393431 59.509 179.2136
2.410775 59.623 178.6592
2.428244 59.736 178.1059
2.445840 59.849 177.5540
2.463564 59.962 177.0037
2.481416 60.075 176.4550
2.499397 60.187 175.9081
2.517509 60.300 175.3629
2.535752 60.412 174.8192
2.554127 60.523 174.2766
2.572635 60.635 173.7346
2.591277 60.746 173.1927
2.610055 60.856 172.6505
2.628968 60.966 172.1078
2.648019 61.075 171.5647
2.667208 61.184 171.0212
2.686535 61.292 170.4777
2.706003 61.400 169.9345
2.725612 61.508 169.3918
2.745363 61.615 168.8502
2.765257 61.721 168.3099
2.785295 61.828 167.7713
2.805478 61.934 167.2347
2.825808 62.040 166.7006
2.846285 62.145 166.1690
2.866910 62.251 165.6402
2.887685 62.356 165.1141
2.908611 62.461 164.5908
2.929688 62.566 164.0697
2.950917 62.671 163.5507
2.972301 62.775 163.0331
2.993839 62.879 162.5167
3.015534 62.982 162.0013
3.037386 63.085 161.4871
3.059396 63.188 160.9740
3.081565 63.290 160.4622
3.103896 63.392 159.9521
3.126388 63.494 159.4437
3.149043 63.595 158.9375
3.171862 63.697 158.4337
3.194847 63.798 157.9325
3.217998 63.899 157.4341
3.241317 64.000 156.9387
3.264805 64.102 156.4465
3.288463 64.203 155.9572
3.312293 64.304 155.4709
3.336295 64.405 154.9872
3.360471 64.506 154.5061
3.384822 64.607 154.0271
3.409350 64.708 153.5502
3.434056 64.808 153.0753
3.458940 64.909 152.6021
3.484005 65.009 152.1307
3.509252 65.109 151.6609
3.534681 65.210 151.1928
3.560295 65.310 150.7263
3.586094 65.411 150.2613
3.612081 65.511 149.7979
3.638255 65.612 149.3361
3.664620 65.713 148.8760
3.691175 65.815 148.4176
3.717923 65.916 147.9609
3.744864 66.017 147.5058
3.772001 66.119 147.0521
3.799335 66.220 146.5996
3.826866 66.322 146.1480
3.854597 66.424 145.6971
3.882529 66.526 145.2466
3.910664 66.628 144.7961
3.939002 66.730 144.3456
3.967546 66.832 143.8948
3.996296 66.934 143.4436
4.025255 67.037 142.9920
4.054423 67.140 142.5402
4.083804 67.243 142.0881
4.113396 67.346 141.6357
4.143204 67.449 141.1832
4.173227 67.552 140.7302
4.203468 67.655 140.2765
4.233928 67.758 139.8219
4.264609 67.861 139.3661
4.295512 67.965 138.9089
4.326639 68.068 138.4500
4.357992 68.171 137.9890
4.389572 68.274 137.5260
4.421380 68.377 137.0609
4.453419 68.479 136.5937
4.485691 68.582 136.1245
4.518196 68.684 135.6534
4.550936 68.786 135.1807
4.583914 68.888 134.7062
4.617131 68.990 134.2301
4.650589 69.092 133.7524
4.684289 69.192 133.2729
4.718233 69.293 132.7917
4.752424 69.393 132.3084
4.786862 69.493 131.8231
4.821549 69.592 131.3355
4.856488 69.691 130.8459
4.891680 69.789 130.3543
4.927127 69.886 129.8613
4.962831 69.983 129.3672
4.998794 70.080 128.8723
5.035017 70.176 128.3770
5.071503 70.271 127.8814
5.108253 70.365 127.3855
5.145270 70.459 126.8892
5.182555 70.552 126.3924
5.220110 70.644 125.8950
5.257937 70.735 125.3972
5.296038 70.826 124.8995
5.334415 70.916 124.4024
5.373071 71.005 123.9063
5.412006 71.094 123.4118
5.451224 71.182 122.9192
5.490725 71.269 122.4285
5.530514 71.355 121.9397
5.570590 71.441 121.4526
5.610957 71.526 120.9672
5.651616 71.610 120.4837
5.692570 71.694 120.0025
5.733821 71.777 119.5238
5.775370 71.859 119.0480
5.817221 71.941 118.5755
5.859375 72.023 118.1064
5.901834 72.104 117.6405
5.944602 72.184 117.1778
5.987679 72.264 116.7181
6.031068 72.344 116.2614
6.074771 72.423 115.8076
6.118792 72.502 115.3566
6.163131 72.581 114.9086
6.207792 72.660 114.4634
6.252776 72.739 114.0211
6.298086 72.817 113.5816
6.343725 72.895 113.1445
6.389694 72.973 112.7097
6.435996 73.051 112.2766
6.482634 73.129 111.8451
6.529610 73.207 111.4148
6.576926 73.285 110.9854
6.624585 73.363 110.5568
6.672590 73.441 110.1289
6.720942 73.518 109.7013
6.769645 73.596 109.2739
6.818700 73.673 108.8461
6.868111 73.751 108.4178
6.917881 73.828 107.9885
6.968010 73.905 107.5579
7.018504 73.982 107.1260
7.069362 74.059 106.6927
7.120590 74.135 106.2579
7.172189 74.211 105.8215
7.224161 74.286 105.3836
7.276511 74.361 104.9440
7.329239 74.436 104.5027
7.382350 74.509 104.0595
7.435845 74.583 103.6147
7.489729 74.655 103.1685
7.544002 74.727 102.7211
7.598669 74.798 102.2728
7.653732 74.869 101.8241
7.709194 74.938 101.3749
7.765058 75.007 100.9256
7.821327 75.074 100.4763
7.878004 75.141 100.0274
7.935091 75.207 99.5794
7.992592 75.273 99.1328
8.050510 75.337 98.6879
8.108847 75.401 98.2450
8.167607 75.464 97.8043
8.226793 75.526 97.3658
8.286408 75.587 96.9300
8.346454 75.648 96.4970
8.406936 75.709 96.0671
8.467856 75.769 95.6403
8.529218 75.828 95.2167
8.591024 75.887 94.7962
8.653278 75.946 94.3785
8.715983 76.005 93.9635
8.779143 76.063 93.5510
8.842760 76.121 93.1408
8.906839 76.180 92.7327
8.971381 76.238 92.3261
9.036392 76.296 91.9207
9.101873 76.354 91.5158
9.167829 76.413 91.1112
9.234263 76.471 90.7063
9.301178 76.529 90.3009
9.368578 76.588 89.8945
9.436467 76.646 89.4866
9.504847 76.704 89.0770
9.573723 76.762 88.6652
9.643099 76.820 88.2512
9.712976 76.877 87.8348
9.783361 76.934 87.4160
9.854255 76.991 86.9949
9.925663 77.047 86.5715
9.997588 77.102 86.1459
10.070035 77.157 85.7185
10.143007 77.211 85.2897
10.216507 77.265 84.8598
10.290540 77.318 84.4293
10.365109 77.370 83.9985
10.440219 77.421 83.5680
10.515873 77.472 83.1382
10.592076 77.521 82.7095
10.668830 77.571 82.2825
10.746141 77.620 81.8574
10.824012 77.668 81.4343
10.902447 77.716 81.0135
10.981451 77.763 80.5952
11.061027 77.811 80.1791
11.141180 77.858 79.7654
11.221913 77.905 79.3535
11.303232 77.953 78.9432
11.385140 78.000 78.5341
11.467641 78.047 78.1257
11.550741 78.095 77.7174
11.634442 78.143 77.3086
11.718750 78.191 76.8987
11.803669 78.239 76.4871
11.889203 78.287 76.0733
11.975357 78.335 75.6568
12.062136 78.383 75.2373
12.149543 78.431 74.8144
12.237583 78.478 74.3880
12.326262 78.525 73.9581
12.415583 78.572 73.5248
12.505552 78.618 73.0884
12.596172 78.663 72.6493
12.687449 78.708 72.2078
12.779387 78.751 71.7648
12.871992 78.794 71.3208
12.965268 78.835 70.8765
13.059220 78.876 70.4328
13.153852 78.916 69.9903
13.249170 78.954 69.5499
13.345179 78.992 69.1122
13.441884 79.029 68.6778
13.539289 79.066 68.2473
13.637401 79.102 67.8210
13.736223 79.137 67.3994
13.835761 79.172 66.9825
13.936021 79.206 66.5706
14.037007 79.241 66.1635
14.138725 79.275 65.7609
14.241180 79.309 65.3627
14.344377 79.344 64.9684
14.448323 79.378 64.5775
14.553021 79.413 64.1893
14.658478 79.449 63.8033
14.764700 79.484 63.4185
14.871691 79.521 63.0341
14.979457 79.557 62.6493
15.088005 79.594 62.2632
15.197339 79.631 61.8748
15.307465 79.669 61.4832
15.418389 79.706 61.0877
15.530117 79.744 60.6876
15.642655 79.781 60.2823
15.756008 79.819 59.8716
15.870182 79.855 59.4551
15.985184 79.891 59.0332
16.101019 79.926 58.6064
16.217694 79.960 58.1753
16.335214 79.992 57.7410
16.453586 80.023 57.3048
16.572815 80.052 56.8683
16.692909 80.080 56.4330
16.813872 80.107 56.0005
16.935713 80.132 55.5724
17.058436 80.156 55.1500
17.182048 80.179 54.7341
17.306556 80.201 54.3254
17.431967 80.223 53.9237
17.558286 80.245 53.5285
17.685521 80.267 53.1387
17.813677 80.290 52.7526
17.942762 80.313 52.3684
18.072783 80.336 51.9841
18.203746 80.359 51.5975
18.335658 80.383 51.2071
18.468526 80.406 50.8117
18.602356 80.429 50.4110
18.737156 80.450 50.0055
18.872934 80.470 49.5966
19.009695 80.487 49.1870
19.147447 80.502 48.7798
19.286197 80.515 48.3790
19.425953 80.525 47.9887
19.566721 80.534 47.6133
19.708510 80.540 47.2561
19.851326 80.546 46.9202
19.995177 80.552 46.6071
20.140070 80.558 46.3168
20.286013 80.566 46.0479
20.433014 80.576 45.7971
20.581080 80.590 45.5600
20.730219 80.607 45.3310
20.880439 80.628 45.1039
21.031747 80.652 44.8727
21.184152 80.679 44.6317
21.337661 80.708 44.3765
21.492282 80.739 44.1039
21.648024 80.770 43.8126
21.804895 80.801 43.5026
21.962902 80.831 43.1754
22.122054 80.860 42.8339
22.282360 80.886 42.4814
22.443827 80.910 42.1216
22.606464 80.932 41.7583
22.770280 80.951 41.3946
22.935283 80.969 41.0328
23.101481 80.985 40.6746
23.268884 81.000 40.3206
23.437500 81.014 39.9706
23.607338 81.027 39.6239
23.778406 81.040 39.2793
23.950714 81.052 38.9357
24.124271 81.063 38.5919
24.299086 81.073 38.2472
24.475167 81.083 37.9013
24.652524 81.091 37.5546
24.831166 81.098 37.2080
25.011103 81.103 36.8630
25.192344 81.106 36.5216
25.374898 81.108 36.1859
25.558775 81.109 35.8583
25.743984 81.109 35.5406
25.930536 81.108 35.2342
26.118439 81.107 34.9396
26.307704 81.106 34.6562
26.498341 81.107 34.3824
26.690359 81.108 34.1156
26.883768 81.112 33.8527
27.078579 81.117 33.5898
27.274801 81.123 33.3240
27.472446 81.131 33.0524
27.671522 81.140 32.7737
27.872042 81.148 32.4876
28.074014 81.156 32.1952
28.277450 81.164 31.8984
28.482360 81.171 31.5993
28.688755 81.178 31.3002
28.896645 81.184 31.0024
29.106042 81.190 30.7068
29.316957 81.195 30.4133
29.529400 81.201 30.1212
29.743382 81.206 29.8299
29.958915 81.211 29.5394
30.176009 81.215 29.2501
30.394677 81.219 28.9636
30.614929 81.221 28.6820
30.836778 81.223 28.4074
31.060234 81.224 28.1415
31.285309 81.225 27.8848
31.512015 81.226 27.6365
31.740364 81.228 27.3943
31.970368 81.231 27.1555
32.202039 81.234 26.9171
32.435388 81.237 26.6766
32.670428 81.239 26.4334
32.907171 81.241 26.1881
33.145630 81.241 25.9429
33.385817 81.240 25.7004
33.627745 81.237 25.4637
33.871425 81.234 25.2347
34.116871 81.230 25.0144
34.364096 81.226 24.8023
34.613113 81.223 24.5968
34.863934 81.220 24.3958
35.116572 81.218 24.1969
35.371041 81.216 23.9984
35.627354 81.215 23.7988
35.885525 81.214 23.5972
36.145566 81.214 23.3928
36.407492 81.214 23.1848
36.671316 81.214 22.9729
36.937051 81.213 22.7570
37.204712 81.213 22.5377
37.474313 81.212 22.3167
37.745867 81.209 22.0968
38.019389 81.206 21.8817
38.294893 81.202 21.6747
38.572394 81.198 21.4783
38.851905 81.195 21.2928
39.133442 81.193 21.1163
39.417019 81.192 20.9443
39.702651 81.194 20.7713
39.990353 81.196 20.5920
40.280140 81.199 20.4036
40.572026 81.201 20.2059
40.866028 81.201 20.0027
41.162160 81.199 19.7998
41.460438 81.194 19.6044
41.760877 81.187 19.4220
42.063494 81.180 19.2556
42.368303 81.172 19.1046
42.675322 81.166 18.9655
42.984565 81.160 18.8336
43.296048 81.155 18.7043
43.609789 81.152 18.5748
43.925804 81.148 18.4437
44.244108 81.145 18.3104
44.564719 81.143 18.1740
44.887654 81.141 18.0320
45.212928 81.140 17.8811
45.540560 81.138 17.7185
45.870565 81.136 17.5437
46.202962 81.132 17.3601
46.537768 81.127 17.1740
46.875000 81.119 16.9929
47.214676 81.111 16.8223
47.556813 81.103 16.6628
47.901429 81.096 16.5106
48.248542 81.092 16.3592
48.598171 81.088 16.2028
48.950334 81.085 16.0396
49.305048 81.082 15.8724
49.662333 81.077 15.7068
50.022206 81.072 15.5486
50.384688 81.067 15.4009
50.749796 81.063 15.2634
51.117550 81.060 15.1331
51.487969 81.058 15.0059
51.861072 81.057 14.8792
52.236879 81.056 14.7518
52.615409 81.056 14.6241
52.996681 81.055 14.4969
53.380717 81.053 14.3713
53.767536 81.051 14.2474
54.157158 81.049 14.1250
54.549603 81.045 14.0033
54.944892 81.041 13.8815
55.343045 81.037 13.7598
55.744084 81.030 13.6394
56.148028 81.023 13.5227
56.554900 81.015 13.4124
56.964720 81.006 13.3093
57.377510 80.998 13.2120
57.793291 80.992 13.1168
58.212085 80.986 13.0194
58.633914 80.981 12.9172
59.058799 80.976 12.8105
59.486764 80.972 12.7019
59.917829 80.968 12.5936
60.352019 80.965 12.4867
60.789354 80.964 12.3796
61.229859 80.963 12.2708
61.673556 80.963 12.1597
62.120468 80.963 12.0486
62.570618 80.962 11.9417
63.024031 80.960 11.8433
63.480729 80.958 11.7561
63.940736 80.956 11.6809
64.404077 80.954 11.6165
64.870776 80.951 11.5620
65.340856 80.949 11.5172
65.814343 80.946 11.4810
66.291261 80.945 11.4475
66.771635 80.945 11.4052
67.255489 80.946 11.3397
67.742850 80.946 11.2427
68.233743 80.943 11.1169
68.728193 80.934 10.9752
69.226226 80.923 10.8315
69.727867 80.908 10.6934
70.233144 80.893 10.5613
70.742083 80.879 10.4343
71.254709 80.864 10.3146
71.771050 80.852 10.2064
72.291132 80.842 10.1102
72.814984 80.835 10.0211
73.342631 80.831 9.9318
73.874102 80.830 9.8387
74.409424 80.830 9.7434
74.948626 80.829 9.6499
75.491734 80.829 9.5618
76.038779 80.827 9.4805
76.589787 80.825 9.4061
77.144788 80.822 9.3369
77.703811 80.819 9.2698
78.266885 80.815 9.2003
78.834039 80.810 9.1255
79.405303 80.804 9.0447
79.980706 80.797 8.9591
80.560280 80.789 8.8703
81.144053 80.782 8.7792
81.732056 80.774 8.6868
82.324320 80.767 8.5953
82.920876 80.761 8.5082
83.521755 80.755 8.4287
84.126988 80.751 8.3582
84.736607 80.749 8.2958
85.350643 80.748 8.2394
85.969129 80.747 8.1866
86.592097 80.747 8.1365
87.219579 80.745 8.0882
87.851608 80.743 8.0411
88.488217 80.740 7.9935
89.129439 80.735 7.9423
89.775308 80.728 7.8849
90.425856 80.720 7.8196
91.081119 80.710 7.7460
91.741131 80.699 7.6647
92.405925 80.687 7.5754
93.075536 80.675 7.4779
93.750000 80.664 7.3721
94.429351 80.653 7.2600
95.113625 80.643 7.1448
95.802858 80.634 7.0305
96.497085 80.626 6.9217
97.196342 80.618 6.8226
97.900667 80.611 6.7362
98.610096 80.605 6.6632
99.324665 80.599 6.6018
