* Measurement data measured by REW V5.31.3
* Source: Headset (CX31993 HIFI AUDIO), MICROPHONE (Master Volume), R, volume: 0.250
* Format: 256k Log Swept Sine, 1 sweep at -12.0 dBFS with no timing reference
* Dated: 12 31, 24 1:00:21 PM
* REW Settings:
*  C-weighting compensation: Off
*  Target level: 75.0 dB
* Note: ; 
* Measurement: Sony LB 400 MAX L
* Smoothing: 1/12 octave
* Frequency Step: 96 ppo
* Start Frequency: 0.36621094 Hz
*
* Freq(Hz) SPL(dB) Phase(degrees)
0.366211 43.094 -62.6266
0.368865 43.103 -62.7143
0.371538 43.117 -62.8453
0.374230 43.134 -63.0089
0.376942 43.153 -63.1962
0.379673 43.174 -63.4004
0.382424 43.195 -63.6173
0.385196 43.217 -63.8440
0.387987 43.240 -64.0791
0.390798 43.263 -64.3217
0.393630 43.285 -64.5714
0.396483 43.309 -64.8279
0.399356 43.332 -65.0911
0.402250 43.355 -65.3610
0.405165 43.379 -65.6376
0.408101 43.403 -65.9209
0.411058 43.427 -66.2110
0.414037 43.451 -66.5077
0.417037 43.475 -66.8113
0.420059 43.500 -67.1215
0.423103 43.524 -67.4385
0.426169 43.549 -67.7623
0.429257 43.574 -68.0929
0.432368 43.600 -68.4302
0.435501 43.625 -68.7743
0.438656 43.651 -69.1251
0.441835 43.676 -69.4827
0.445037 43.702 -69.8469
0.448262 43.728 -70.2178
0.451510 43.755 -70.5954
0.454782 43.781 -70.9796
0.458077 43.808 -71.3703
0.461397 43.835 -71.7676
0.464740 43.862 -72.1713
0.468108 43.889 -72.5815
0.471500 43.917 -72.9980
0.474917 43.945 -73.4208
0.478358 43.973 -73.8499
0.481825 44.001 -74.2851
0.485316 44.029 -74.7263
0.488833 44.058 -75.1736
0.492375 44.086 -75.6267
0.495943 44.115 -76.0856
0.499537 44.144 -76.5502
0.503157 44.174 -77.0204
0.506803 44.203 -77.4961
0.510475 44.233 -77.9771
0.514175 44.263 -78.4634
0.517900 44.293 -78.9548
0.521653 44.324 -79.4512
0.525434 44.354 -79.9524
0.529241 44.385 -80.4584
0.533076 44.416 -80.9690
0.536939 44.448 -81.4840
0.540830 44.479 -82.0034
0.544749 44.511 -82.5269
0.548696 44.543 -83.0544
0.552673 44.575 -83.5857
0.556677 44.608 -84.1208
0.560711 44.641 -84.6595
0.564774 44.674 -85.2015
0.568867 44.707 -85.7468
0.572989 44.740 -86.2952
0.577141 44.774 -86.8465
0.581324 44.808 -87.4007
0.585536 44.842 -87.9574
0.589779 44.876 -88.5166
0.594053 44.911 -89.0782
0.598358 44.946 -89.6420
0.602694 44.981 -90.2077
0.607061 45.017 -90.7754
0.611460 45.052 -91.3449
0.615891 45.088 -91.9159
0.620354 45.124 -92.4885
0.624849 45.161 -93.0624
0.629377 45.198 -93.6375
0.633938 45.235 -94.2138
0.638532 45.272 -94.7911
0.643159 45.309 -95.3693
0.647819 45.347 -95.9483
0.652514 45.385 -96.5281
0.657242 45.424 -97.1085
0.662005 45.462 -97.6894
0.666802 45.501 -98.2708
0.671634 45.540 -98.8526
0.676501 45.580 -99.4348
0.681403 45.620 -100.0174
0.686341 45.660 -100.6002
0.691314 45.700 -101.1833
0.696324 45.741 -101.7667
0.701370 45.782 -102.3504
0.706452 45.823 -102.9345
0.711571 45.865 -103.5190
0.716728 45.908 -104.1043
0.721921 45.951 -104.6906
0.727153 45.996 -105.2783
0.732422 46.041 -105.8680
0.737729 46.088 -106.4602
0.743075 46.136 -107.0557
0.748460 46.186 -107.6546
0.753883 46.237 -108.2573
0.759346 46.288 -108.8637
0.764849 46.341 -109.4737
0.770391 46.394 -110.0872
0.775974 46.448 -110.7039
0.781597 46.503 -111.3236
0.787261 46.559 -111.9460
0.792966 46.615 -112.5708
0.798712 46.672 -113.1977
0.804500 46.730 -113.8265
0.810329 46.789 -114.4568
0.816201 46.848 -115.0884
0.822116 46.908 -115.7210
0.828073 46.969 -116.3544
0.834074 47.030 -116.9882
0.840118 47.093 -117.6222
0.846206 47.156 -118.2562
0.852338 47.219 -118.8899
0.858514 47.283 -119.5230
0.864735 47.348 -120.1553
0.871001 47.414 -120.7866
0.877313 47.480 -121.4166
0.883670 47.547 -122.0453
0.890074 47.615 -122.6722
0.896524 47.683 -123.2973
0.903020 47.751 -123.9204
0.909564 47.821 -124.5413
0.916155 47.891 -125.1598
0.922794 47.961 -125.7758
0.929481 48.032 -126.3892
0.936216 48.104 -126.9997
0.943000 48.176 -127.6074
0.949834 48.248 -128.2120
0.956717 48.321 -128.8135
0.963649 48.394 -129.4118
0.970632 48.468 -130.0068
0.977666 48.542 -130.5984
0.984750 48.617 -131.1867
0.991886 48.691 -131.7715
0.999074 48.767 -132.3529
1.006314 48.842 -132.9307
1.013606 48.918 -133.5050
1.020951 48.993 -134.0758
1.028349 49.069 -134.6432
1.035801 49.146 -135.2070
1.043307 49.222 -135.7675
1.050867 49.298 -136.3245
1.058482 49.375 -136.8784
1.066152 49.451 -137.4292
1.073878 49.528 -137.9771
1.081660 49.604 -138.5226
1.089498 49.681 -139.0659
1.097393 49.757 -139.6079
1.105345 49.834 -140.1490
1.113355 49.911 -140.6901
1.121423 49.988 -141.2316
1.129549 50.066 -141.7739
1.137734 50.143 -142.3172
1.145979 50.222 -142.8615
1.154283 50.300 -143.4068
1.162647 50.379 -143.9530
1.171072 50.458 -144.5001
1.179558 50.538 -145.0478
1.188106 50.617 -145.5960
1.196715 50.698 -146.1445
1.205387 50.778 -146.6932
1.214122 50.859 -147.2417
1.222920 50.940 -147.7900
1.231782 51.022 -148.3378
1.240708 51.104 -148.8849
1.249699 51.186 -149.4310
1.258754 51.268 -149.9759
1.267876 51.351 -150.5194
1.277063 51.434 -151.0611
1.286318 51.518 -151.6010
1.295639 51.602 -152.1385
1.305027 51.685 -152.6736
1.314484 51.770 -153.2059
1.324009 51.854 -153.7352
1.333604 51.939 -154.2610
1.343268 52.024 -154.7832
1.353002 52.109 -155.3015
1.362806 52.195 -155.8155
1.372681 52.281 -156.3249
1.382628 52.367 -156.8294
1.392647 52.453 -157.3288
1.402739 52.539 -157.8227
1.412904 52.626 -158.3109
1.423142 52.712 -158.7931
1.433455 52.799 -159.2692
1.443843 52.886 -159.7392
1.454305 52.973 -160.2032
1.464844 53.061 -160.6615
1.475459 53.148 -161.1144
1.486150 53.235 -161.5625
1.496920 53.323 -162.0063
1.507767 53.410 -162.4462
1.518693 53.498 -162.8823
1.529698 53.586 -163.3150
1.540783 53.673 -163.7445
1.551948 53.761 -164.1708
1.563194 53.849 -164.5941
1.574521 53.937 -165.0145
1.585931 54.025 -165.4320
1.597423 54.113 -165.8469
1.608999 54.202 -166.2591
1.620658 54.290 -166.6687
1.632402 54.379 -167.0758
1.644232 54.468 -167.4805
1.656146 54.557 -167.8828
1.668147 54.646 -168.2828
1.680235 54.736 -168.6805
1.692411 54.825 -169.0759
1.704675 54.915 -169.4692
1.717028 55.006 -169.8604
1.729470 55.097 -170.2494
1.742003 55.188 -170.6363
1.754626 55.279 -171.0212
1.767341 55.371 -171.4039
1.780147 55.463 -171.7846
1.793047 55.555 -172.1632
1.806040 55.648 -172.5396
1.819128 55.742 -172.9137
1.832310 55.835 -173.2854
1.845587 55.929 -173.6547
1.858961 56.023 -174.0214
1.872432 56.118 -174.3855
1.886001 56.212 -174.7470
1.899667 56.307 -175.1060
1.913433 56.402 -175.4626
1.927299 56.497 -175.8168
1.941265 56.592 -176.1689
1.955332 56.688 -176.5188
1.969501 56.784 -176.8668
1.983773 56.880 -177.2129
1.998148 56.976 -177.5573
2.012627 57.073 -177.9000
2.027212 57.170 -178.2413
2.041902 57.267 -178.5811
2.056698 57.365 -178.9196
2.071602 57.463 -179.2568
2.086614 57.561 -179.5929
2.101734 57.660 -179.9279
2.116964 57.760 179.7381
2.132304 57.859 179.4052
2.147756 57.960 179.0733
2.163320 58.061 178.7427
2.178996 58.162 178.4134
2.194786 58.264 178.0858
2.210690 58.366 177.7601
2.226710 58.469 177.4368
2.242845 58.573 177.1159
2.259098 58.676 176.7975
2.275468 58.781 176.4816
2.291957 58.885 176.1677
2.308566 58.990 175.8557
2.325295 59.096 175.5452
2.342145 59.201 175.2359
2.359117 59.308 174.9274
2.376212 59.414 174.6194
2.393431 59.521 174.3115
2.410775 59.629 174.0032
2.428244 59.736 173.6943
2.445840 59.844 173.3845
2.463564 59.953 173.0733
2.481416 60.062 172.7606
2.499397 60.171 172.4460
2.517509 60.281 172.1297
2.535752 60.391 171.8116
2.554127 60.501 171.4919
2.572635 60.612 171.1711
2.591277 60.723 170.8496
2.610055 60.834 170.5278
2.628968 60.946 170.2060
2.648019 61.059 169.8841
2.667208 61.171 169.5621
2.686535 61.285 169.2398
2.706003 61.398 168.9168
2.725612 61.512 168.5928
2.745363 61.625 168.2675
2.765257 61.740 167.9405
2.785295 61.854 167.6114
2.805478 61.968 167.2798
2.825808 62.083 166.9453
2.846285 62.198 166.6077
2.866910 62.312 166.2666
2.887685 62.427 165.9219
2.908611 62.542 165.5735
2.929688 62.657 165.2214
2.950917 62.772 164.8660
2.972301 62.887 164.5075
2.993839 63.002 164.1462
3.015534 63.117 163.7823
3.037386 63.232 163.4160
3.059396 63.347 163.0475
3.081565 63.462 162.6769
3.103896 63.577 162.3041
3.126388 63.692 161.9292
3.149043 63.807 161.5522
3.171862 63.921 161.1731
3.194847 64.036 160.7917
3.217998 64.150 160.4081
3.241317 64.264 160.0222
3.264805 64.378 159.6337
3.288463 64.491 159.2427
3.312293 64.604 158.8490
3.336295 64.717 158.4526
3.360471 64.830 158.0536
3.384822 64.942 157.6521
3.409350 65.053 157.2483
3.434056 65.165 156.8424
3.458940 65.276 156.4348
3.484005 65.386 156.0255
3.509252 65.497 155.6150
3.534681 65.607 155.2034
3.560295 65.716 154.7907
3.586094 65.825 154.3773
3.612081 65.934 153.9629
3.638255 66.043 153.5476
3.664620 66.151 153.1312
3.691175 66.258 152.7134
3.717923 66.365 152.2941
3.744864 66.471 151.8734
3.772001 66.577 151.4512
3.799335 66.683 151.0279
3.826866 66.788 150.6038
3.854597 66.892 150.1792
3.882529 66.996 149.7546
3.910664 67.100 149.3302
3.939002 67.203 148.9064
3.967546 67.307 148.4833
3.996296 67.409 148.0612
4.025255 67.512 147.6399
4.054423 67.614 147.2193
4.083804 67.716 146.7993
4.113396 67.817 146.3797
4.143204 67.918 145.9603
4.173227 68.019 145.5412
4.203468 68.119 145.1224
4.233928 68.219 144.7039
4.264609 68.319 144.2858
4.295512 68.418 143.8682
4.326639 68.518 143.4512
4.357992 68.617 143.0349
4.389572 68.716 142.6193
4.421380 68.816 142.2043
4.453419 68.915 141.7900
4.485691 69.013 141.3761
4.518196 69.112 140.9625
4.550936 69.211 140.5490
4.583914 69.309 140.1352
4.617131 69.408 139.7209
4.650589 69.506 139.3060
4.684289 69.605 138.8902
4.718233 69.703 138.4734
4.752424 69.801 138.0556
4.786862 69.900 137.6367
4.821549 69.998 137.2169
4.856488 70.097 136.7960
4.891680 70.195 136.3737
4.927127 70.294 135.9500
4.962831 70.392 135.5243
4.998794 70.490 135.0964
5.035017 70.588 134.6659
5.071503 70.686 134.2325
5.108253 70.783 133.7959
5.145270 70.881 133.3560
5.182555 70.978 132.9130
5.220110 71.075 132.4667
5.257937 71.172 132.0172
5.296038 71.268 131.5646
5.334415 71.365 131.1088
5.373071 71.460 130.6498
5.412006 71.555 130.1874
5.451224 71.650 129.7214
5.490725 71.743 129.2517
5.530514 71.837 128.7781
5.570590 71.929 128.3006
5.610957 72.021 127.8195
5.651616 72.112 127.3353
5.692570 72.202 126.8483
5.733821 72.291 126.3590
5.775370 72.379 125.8679
5.817221 72.466 125.3750
5.859375 72.553 124.8804
5.901834 72.638 124.3841
5.944602 72.721 123.8861
5.987679 72.804 123.3867
6.031068 72.886 122.8867
6.074771 72.966 122.3868
6.118792 73.045 121.8879
6.163131 73.123 121.3907
6.207792 73.200 120.8957
6.252776 73.275 120.4029
6.298086 73.349 119.9124
6.343725 73.422 119.4244
6.389694 73.494 118.9395
6.435996 73.565 118.4583
6.482634 73.634 117.9819
6.529610 73.703 117.5109
6.576926 73.771 117.0459
6.624585 73.837 116.5871
6.672590 73.903 116.1346
6.720942 73.969 115.6885
6.769645 74.033 115.2490
6.818700 74.097 114.8162
6.868111 74.160 114.3906
6.917881 74.224 113.9725
6.968010 74.287 113.5621
7.018504 74.349 113.1594
7.069362 74.412 112.7643
7.120590 74.475 112.3762
7.172189 74.538 111.9948
7.224161 74.601 111.6198
7.276511 74.664 111.2507
7.329239 74.728 110.8873
7.382350 74.793 110.5294
7.435845 74.858 110.1763
7.489729 74.924 109.8274
7.544002 74.990 109.4819
7.598669 75.058 109.1387
7.653732 75.126 108.7971
7.709194 75.194 108.4565
7.765058 75.264 108.1162
7.821327 75.334 107.7758
7.878004 75.405 107.4344
7.935091 75.477 107.0914
7.992592 75.549 106.7458
8.050510 75.621 106.3970
8.108847 75.694 106.0444
8.167607 75.768 105.6878
8.226793 75.841 105.3269
8.286408 75.915 104.9615
8.346454 75.989 104.5914
8.406936 76.062 104.2161
8.467856 76.136 103.8357
8.529218 76.209 103.4501
8.591024 76.282 103.0597
8.653278 76.354 102.6648
8.715983 76.426 102.2656
8.779143 76.497 101.8625
8.842760 76.567 101.4558
8.906839 76.637 101.0459
8.971381 76.705 100.6332
9.036392 76.773 100.2184
9.101873 76.840 99.8021
9.167829 76.906 99.3847
9.234263 76.971 98.9668
9.301178 77.036 98.5487
9.368578 77.099 98.1308
9.436467 77.162 97.7137
9.504847 77.224 97.2978
9.573723 77.285 96.8833
9.643099 77.346 96.4704
9.712976 77.405 96.0594
9.783361 77.465 95.6502
9.854255 77.524 95.2431
9.925663 77.582 94.8380
9.997588 77.640 94.4348
10.070035 77.698 94.0336
10.143007 77.755 93.6340
10.216507 77.812 93.2360
10.290540 77.869 92.8394
10.365109 77.925 92.4440
10.440219 77.981 92.0496
10.515873 78.037 91.6562
10.592076 78.093 91.2634
10.668830 78.148 90.8712
10.746141 78.203 90.4796
10.824012 78.258 90.0884
10.902447 78.312 89.6978
10.981451 78.366 89.3078
11.061027 78.420 88.9185
11.141180 78.473 88.5298
11.221913 78.526 88.1422
11.303232 78.579 87.7556
11.385140 78.631 87.3702
11.467641 78.682 86.9863
11.550741 78.734 86.6039
11.634442 78.785 86.2231
11.718750 78.836 85.8439
11.803669 78.887 85.4666
11.889203 78.937 85.0908
11.975357 78.988 84.7165
12.062136 79.038 84.3435
12.149543 79.089 83.9716
12.237583 79.139 83.6006
12.326262 79.189 83.2300
12.415583 79.240 82.8594
12.505552 79.290 82.4886
12.596172 79.341 82.1172
12.687449 79.391 81.7448
12.779387 79.441 81.3713
12.871992 79.491 80.9963
12.965268 79.541 80.6198
13.059220 79.590 80.2418
13.153852 79.640 79.8625
13.249170 79.688 79.4820
13.345179 79.736 79.1009
13.441884 79.784 78.7195
13.539289 79.830 78.3384
13.637401 79.877 77.9584
13.736223 79.922 77.5800
13.835761 79.967 77.2040
13.936021 80.011 76.8311
14.037007 80.055 76.4618
14.138725 80.099 76.0965
14.241180 80.142 75.7355
14.344377 80.186 75.3789
14.448323 80.229 75.0267
14.553021 80.273 74.6783
14.658478 80.317 74.3332
14.764700 80.361 73.9906
14.871691 80.407 73.6495
14.979457 80.452 73.3087
15.088005 80.499 72.9669
15.197339 80.546 72.6230
15.307465 80.593 72.2758
15.418389 80.641 71.9242
15.530117 80.689 71.5675
15.642655 80.736 71.2051
15.756008 80.784 70.8370
15.870182 80.830 70.4633
15.985184 80.876 70.0846
16.101019 80.921 69.7020
16.217694 80.965 69.3166
16.335214 81.007 68.9300
16.453586 81.048 68.5437
16.572815 81.088 68.1595
16.692909 81.126 67.7789
16.813872 81.164 67.4031
16.935713 81.200 67.0332
17.058436 81.236 66.6696
17.182048 81.272 66.3123
17.306556 81.308 65.9607
17.431967 81.343 65.6139
17.558286 81.380 65.2704
17.685521 81.416 64.9285
17.813677 81.454 64.5862
17.942762 81.491 64.2416
18.072783 81.529 63.8933
18.203746 81.566 63.5401
18.335658 81.603 63.1813
18.468526 81.639 62.8171
18.602356 81.673 62.4483
18.737156 81.706 62.0764
18.872934 81.737 61.7036
19.009695 81.766 61.3323
19.147447 81.794 60.9653
19.286197 81.819 60.6054
19.425953 81.842 60.2549
19.566721 81.865 59.9159
19.708510 81.886 59.5895
19.851326 81.907 59.2762
19.995177 81.928 58.9758
20.140070 81.950 58.6872
20.286013 81.972 58.4090
20.433014 81.995 58.1391
20.581080 82.019 57.8759
20.730219 82.045 57.6176
20.880439 82.071 57.3629
21.031747 82.098 57.1111
21.184152 82.125 56.8619
21.337661 82.153 56.6155
21.492282 82.183 56.3720
21.648024 82.213 56.1315
21.804895 82.244 55.8936
21.962902 82.277 55.6571
22.122054 82.311 55.4199
22.282360 82.348 55.1793
22.443827 82.386 54.9316
22.606464 82.426 54.6732
22.770280 82.468 54.4004
22.935283 82.510 54.1105
23.101481 82.553 53.8020
23.268884 82.594 53.4751
23.437500 82.634 53.1320
23.607338 82.672 52.7762
23.778406 82.706 52.4130
23.950714 82.738 52.0483
24.124271 82.767 51.6879
24.299086 82.794 51.3369
24.475167 82.819 50.9988
24.652524 82.843 50.6749
24.831166 82.869 50.3642
25.011103 82.895 50.0635
25.192344 82.923 49.7680
25.374898 82.953 49.4718
25.558775 82.984 49.1692
25.743984 83.017 48.8557
25.930536 83.049 48.5286
26.118439 83.080 48.1877
26.307704 83.110 47.8353
26.498341 83.137 47.4755
26.690359 83.160 47.1141
26.883768 83.181 46.7574
27.078579 83.200 46.4109
27.274801 83.216 46.0788
27.472446 83.232 45.7633
27.671522 83.247 45.4643
27.872042 83.264 45.1793
28.074014 83.281 44.9042
28.277450 83.301 44.6337
28.482360 83.322 44.3629
28.688755 83.344 44.0871
28.896645 83.367 43.8035
29.106042 83.390 43.5108
29.316957 83.412 43.2095
29.529400 83.434 42.9017
29.743382 83.453 42.5903
29.958915 83.471 42.2786
30.176009 83.488 41.9695
30.394677 83.504 41.6649
30.614929 83.520 41.3660
30.836778 83.535 41.0725
31.060234 83.550 40.7835
31.285309 83.565 40.4975
31.512015 83.581 40.2131
31.740364 83.597 39.9292
31.970368 83.612 39.6453
32.202039 83.628 39.3615
32.435388 83.643 39.0787
32.670428 83.658 38.7974
32.907171 83.673 38.5185
33.145630 83.688 38.2420
33.385817 83.703 37.9679
33.627745 83.718 37.6957
33.871425 83.733 37.4248
34.116871 83.748 37.1552
34.364096 83.763 36.8869
34.613113 83.778 36.6204
34.863934 83.793 36.3563
35.116572 83.807 36.0946
35.371041 83.822 35.8351
35.627354 83.837 35.5765
35.885525 83.852 35.3173
36.145566 83.867 35.0557
36.407492 83.882 34.7906
36.671316 83.897 34.5215
36.937051 83.910 34.2496
37.204712 83.922 33.9769
37.474313 83.933 33.7061
37.745867 83.942 33.4399
38.019389 83.951 33.1801
38.294893 83.960 32.9275
38.572394 83.968 32.6809
38.851905 83.978 32.4382
39.133442 83.988 32.1960
39.417019 83.999 31.9512
39.702651 84.010 31.7013
39.990353 84.021 31.4453
40.280140 84.031 31.1839
40.572026 84.041 30.9199
40.866028 84.049 30.6566
41.162160 84.057 30.3974
41.460438 84.064 30.1444
41.760877 84.072 29.8979
42.063494 84.080 29.6562
42.368303 84.089 29.4167
42.675322 84.099 29.1762
42.984565 84.109 28.9328
43.296048 84.119 28.6857
43.609789 84.129 28.4358
43.925804 84.139 28.1846
44.244108 84.148 27.9337
44.564719 84.156 27.6841
44.887654 84.163 27.4360
45.212928 84.170 27.1898
45.540560 84.175 26.9457
45.870565 84.180 26.7047
46.202962 84.184 26.4685
46.537768 84.187 26.2388
46.875000 84.189 26.0166
47.214676 84.191 25.8020
47.556813 84.193 25.5934
47.901429 84.196 25.3880
48.248542 84.200 25.1822
48.598171 84.204 24.9728
48.950334 84.208 24.7579
49.305048 84.212 24.5371
49.662333 84.215 24.3119
50.022206 84.217 24.0846
50.384688 84.218 23.8578
50.749796 84.218 23.6333
51.117550 84.218 23.4119
51.487969 84.218 23.1938
51.861072 84.218 22.9788
52.236879 84.218 22.7666
52.615409 84.218 22.5572
52.996681 84.218 22.3497
53.380717 84.218 22.1427
53.767536 84.218 21.9346
54.157158 84.218 21.7243
54.549603 84.217 21.5129
54.944892 84.215 21.3027
55.343045 84.213 21.0964
55.744084 84.210 20.8953
56.148028 84.208 20.6984
56.554900 84.206 20.5024
56.964720 84.205 20.3046
57.377510 84.204 20.1034
57.793291 84.202 19.8992
58.212085 84.200 19.6936
58.633914 84.198 19.4882
59.058799 84.196 19.2838
59.486764 84.193 19.0815
59.917829 84.189 18.8835
60.352019 84.185 18.6918
60.789354 84.181 18.5078
61.229859 84.176 18.3317
61.673556 84.172 18.1620
62.120468 84.168 17.9970
62.570618 84.164 17.8346
63.024031 84.159 17.6733
63.480729 84.153 17.5126
63.940736 84.146 17.3530
64.404077 84.137 17.1956
64.870776 84.127 17.0407
65.340856 84.116 16.8878
65.814343 84.104 16.7376
66.291261 84.090 16.5936
66.771635 84.077 16.4608
67.255489 84.065 16.3396
67.742850 84.057 16.2205
68.233743 84.053 16.0861
68.728193 84.053 15.9210
69.226226 84.052 15.7224
69.727867 84.049 15.5014
70.233144 84.043 15.2764
70.742083 84.035 15.0626
71.254709 84.026 14.8669
71.771050 84.018 14.6879
72.291132 84.012 14.5201
72.814984 84.006 14.3591
73.342631 84.001 14.2029
73.874102 83.995 14.0518
74.409424 83.989 13.9064
74.948626 83.983 13.7656
75.491734 83.976 13.6262
76.038779 83.969 13.4839
76.589787 83.961 13.3362
77.144788 83.952 13.1831
77.703811 83.941 13.0266
78.266885 83.928 12.8705
78.834039 83.913 12.7185
79.405303 83.897 12.5739
79.980706 83.881 12.4388
80.560280 83.865 12.3149
81.144053 83.850 12.2030
81.732056 83.836 12.1028
82.324320 83.823 12.0126
82.920876 83.811 11.9291
83.521755 83.801 11.8491
84.126988 83.792 11.7689
84.736607 83.783 11.6851
85.350643 83.774 11.5948
85.969129 83.765 11.4973
86.592097 83.754 11.3935
87.219579 83.742 11.2859
87.851608 83.728 11.1763
88.488217 83.714 11.0654
89.129439 83.699 10.9525
89.775308 83.684 10.8368
90.425856 83.668 10.7173
91.081119 83.653 10.5934
91.741131 83.636 10.4650
92.405925 83.619 10.3323
93.075536 83.600 10.1962
93.750000 83.580 10.0583
94.429351 83.558 9.9207
95.113625 83.534 9.7853
95.802858 83.509 9.6526
96.497085 83.482 9.5222
97.196342 83.455 9.3921
97.900667 83.428 9.2602
