* Measurement data measured by REW V5.31.3
* Source: Headset (CX31993 HIFI AUDIO), MICROPHONE (Master Volume), R, volume: 0.250
* Format: 256k Log Swept Sine, 1 sweep at -12.0 dBFS with no timing reference
* Dated: 12 31, 24 1:07:07 PM
* REW Settings:
*  C-weighting compensation: Off
*  Target level: 75.0 dB
* Note: ; 
* Measurement: Sony LB Ambient L
* Smoothing: 1/12 octave
* Frequency Step: 96 ppo
* Start Frequency: 0.36621094 Hz
*
* Freq(Hz) SPL(dB) Phase(degrees)
0.366211 32.643 -53.9013
0.368865 32.658 -54.0165
0.371538 32.679 -54.1880
0.374230 32.706 -54.4013
0.376942 32.736 -54.6439
0.379673 32.768 -54.9068
0.382424 32.802 -55.1839
0.385196 32.836 -55.4716
0.387987 32.871 -55.7678
0.390798 32.906 -56.0712
0.393630 32.942 -56.3812
0.396483 32.978 -56.6975
0.399356 33.014 -57.0199
0.402250 33.051 -57.3484
0.405165 33.088 -57.6830
0.408101 33.125 -58.0236
0.411058 33.162 -58.3703
0.414037 33.200 -58.7231
0.417037 33.238 -59.0819
0.420059 33.276 -59.4468
0.423103 33.314 -59.8178
0.426169 33.353 -60.1949
0.429257 33.392 -60.5781
0.432368 33.431 -60.9674
0.435501 33.471 -61.3628
0.438656 33.511 -61.7642
0.441835 33.551 -62.1717
0.445037 33.591 -62.5853
0.448262 33.632 -63.0049
0.451510 33.673 -63.4304
0.454782 33.715 -63.8619
0.458077 33.756 -64.2994
0.461397 33.798 -64.7428
0.464740 33.840 -65.1920
0.468108 33.883 -65.6471
0.471500 33.926 -66.1079
0.474917 33.969 -66.5745
0.478358 34.012 -67.0468
0.481825 34.056 -67.5247
0.485316 34.100 -68.0081
0.488833 34.145 -68.4971
0.492375 34.190 -68.9915
0.495943 34.235 -69.4912
0.499537 34.280 -69.9963
0.503157 34.326 -70.5066
0.506803 34.372 -71.0221
0.510475 34.418 -71.5426
0.514175 34.465 -72.0681
0.517900 34.512 -72.5985
0.521653 34.560 -73.1338
0.525434 34.607 -73.6738
0.529241 34.655 -74.2184
0.533076 34.704 -74.7675
0.536939 34.753 -75.3212
0.540830 34.802 -75.8792
0.544749 34.851 -76.4414
0.548696 34.901 -77.0078
0.552673 34.952 -77.5783
0.556677 35.002 -78.1527
0.560711 35.053 -78.7310
0.564774 35.105 -79.3131
0.568867 35.156 -79.8989
0.572989 35.208 -80.4882
0.577141 35.261 -81.0810
0.581324 35.314 -81.6772
0.585536 35.367 -82.2766
0.589779 35.421 -82.8792
0.594053 35.475 -83.4848
0.598358 35.529 -84.0935
0.602694 35.584 -84.7051
0.607061 35.639 -85.3194
0.611460 35.695 -85.9365
0.615891 35.751 -86.5561
0.620354 35.807 -87.1784
0.624849 35.864 -87.8030
0.629377 35.921 -88.4301
0.633938 35.979 -89.0594
0.638532 36.037 -89.6910
0.643159 36.095 -90.3246
0.647819 36.154 -90.9604
0.652514 36.213 -91.5982
0.657242 36.273 -92.2380
0.662005 36.333 -92.8796
0.666802 36.394 -93.5231
0.671634 36.455 -94.1683
0.676501 36.517 -94.8153
0.681403 36.579 -95.4640
0.686341 36.641 -96.1143
0.691314 36.704 -96.7662
0.696324 36.768 -97.4197
0.701370 36.832 -98.0746
0.706452 36.897 -98.7309
0.711571 36.963 -99.3884
0.716728 37.030 -100.0470
0.721921 37.099 -100.7062
0.727153 37.171 -101.3656
0.732422 37.245 -102.0245
0.737729 37.324 -102.6821
0.743075 37.405 -103.3374
0.748460 37.490 -103.9899
0.753883 37.577 -104.6387
0.759346 37.666 -105.2835
0.764849 37.758 -105.9240
0.770391 37.851 -106.5599
0.775974 37.947 -107.1910
0.781597 38.044 -107.8171
0.787261 38.142 -108.4383
0.792966 38.243 -109.0544
0.798712 38.345 -109.6654
0.804500 38.448 -110.2712
0.810329 38.554 -110.8718
0.816201 38.661 -111.4673
0.822116 38.769 -112.0576
0.828073 38.879 -112.6428
0.834074 38.991 -113.2229
0.840118 39.104 -113.7979
0.846206 39.219 -114.3680
0.852338 39.335 -114.9332
0.858514 39.453 -115.4936
0.864735 39.572 -116.0494
0.871001 39.692 -116.6005
0.877313 39.814 -117.1472
0.883670 39.937 -117.6896
0.890074 40.061 -118.2277
0.896524 40.187 -118.7619
0.903020 40.314 -119.2921
0.909564 40.442 -119.8186
0.916155 40.571 -120.3414
0.922794 40.701 -120.8609
0.929481 40.832 -121.3771
0.936216 40.965 -121.8903
0.943000 41.098 -122.4006
0.949834 41.231 -122.9081
0.956717 41.366 -123.4132
0.963649 41.502 -123.9159
0.970632 41.638 -124.4165
0.977666 41.774 -124.9151
0.984750 41.911 -125.4120
0.991886 42.049 -125.9073
0.999074 42.187 -126.4013
1.006314 42.325 -126.8941
1.013606 42.464 -127.3860
1.020951 42.602 -127.8771
1.028349 42.741 -128.3677
1.035801 42.879 -128.8578
1.043307 43.017 -129.3479
1.050867 43.155 -129.8379
1.058482 43.293 -130.3280
1.066152 43.430 -130.8182
1.073878 43.567 -131.3087
1.081660 43.703 -131.7991
1.089498 43.839 -132.2892
1.097393 43.974 -132.7785
1.105345 44.109 -133.2662
1.113355 44.244 -133.7516
1.121423 44.380 -134.2340
1.129549 44.515 -134.7132
1.137734 44.651 -135.1887
1.145979 44.787 -135.6605
1.154283 44.923 -136.1286
1.162647 45.060 -136.5930
1.171072 45.197 -137.0537
1.179558 45.335 -137.5109
1.188106 45.473 -137.9647
1.196715 45.611 -138.4153
1.205387 45.750 -138.8627
1.214122 45.889 -139.3072
1.222920 46.028 -139.7488
1.231782 46.168 -140.1878
1.240708 46.308 -140.6242
1.249699 46.448 -141.0582
1.258754 46.588 -141.4900
1.267876 46.729 -141.9197
1.277063 46.870 -142.3475
1.286318 47.012 -142.7736
1.295639 47.153 -143.1982
1.305027 47.295 -143.6212
1.314484 47.437 -144.0431
1.324009 47.580 -144.4639
1.333604 47.722 -144.8837
1.343268 47.865 -145.3028
1.353002 48.008 -145.7213
1.362806 48.151 -146.1394
1.372681 48.295 -146.5572
1.382628 48.438 -146.9749
1.392647 48.582 -147.3926
1.402739 48.726 -147.8105
1.412904 48.870 -148.2287
1.423142 49.014 -148.6471
1.433455 49.158 -149.0657
1.443843 49.302 -149.4844
1.454305 49.447 -149.9027
1.464844 49.591 -150.3201
1.475459 49.735 -150.7360
1.486150 49.879 -151.1497
1.496920 50.023 -151.5607
1.507767 50.167 -151.9689
1.518693 50.311 -152.3742
1.529698 50.454 -152.7767
1.540783 50.598 -153.1765
1.551948 50.741 -153.5741
1.563194 50.884 -153.9695
1.574521 51.027 -154.3631
1.585931 51.170 -154.7554
1.597423 51.312 -155.1465
1.608999 51.455 -155.5367
1.620658 51.598 -155.9266
1.632402 51.740 -156.3162
1.644232 51.882 -156.7060
1.656146 52.025 -157.0963
1.668147 52.167 -157.4874
1.680235 52.309 -157.8795
1.692411 52.451 -158.2731
1.704675 52.594 -158.6685
1.717028 52.736 -159.0658
1.729470 52.878 -159.4655
1.742003 53.021 -159.8677
1.754626 53.163 -160.2728
1.767341 53.306 -160.6810
1.780147 53.448 -161.0923
1.793047 53.591 -161.5070
1.806040 53.734 -161.9249
1.819128 53.876 -162.3458
1.832310 54.019 -162.7693
1.845587 54.162 -163.1947
1.858961 54.304 -163.6214
1.872432 54.446 -164.0491
1.886001 54.588 -164.4772
1.899667 54.730 -164.9055
1.913433 54.871 -165.3340
1.927299 55.012 -165.7625
1.941265 55.152 -166.1911
1.955332 55.292 -166.6199
1.969501 55.432 -167.0488
1.983773 55.572 -167.4780
1.998148 55.711 -167.9076
2.012627 55.851 -168.3377
2.027212 55.990 -168.7684
2.041902 56.128 -169.1999
2.056698 56.267 -169.6322
2.071602 56.406 -170.0657
2.086614 56.544 -170.5003
2.101734 56.682 -170.9364
2.116964 56.820 -171.3740
2.132304 56.958 -171.8134
2.147756 57.097 -172.2545
2.163320 57.235 -172.6977
2.178996 57.372 -173.1427
2.194786 57.510 -173.5896
2.210690 57.648 -174.0381
2.226710 57.785 -174.4881
2.242845 57.922 -174.9394
2.259098 58.058 -175.3916
2.275468 58.194 -175.8447
2.291957 58.329 -176.2985
2.308566 58.464 -176.7530
2.325295 58.599 -177.2081
2.342145 58.733 -177.6638
2.359117 58.867 -178.1201
2.376212 59.001 -178.5770
2.393431 59.134 -179.0346
2.410775 59.267 -179.4928
2.428244 59.399 -179.9518
2.445840 59.532 179.5883
2.463564 59.664 179.1275
2.481416 59.795 178.6656
2.499397 59.927 178.2025
2.517509 60.058 177.7382
2.535752 60.190 177.2724
2.554127 60.321 176.8051
2.572635 60.451 176.3362
2.591277 60.581 175.8657
2.610055 60.711 175.3936
2.628968 60.840 174.9201
2.648019 60.969 174.4453
2.667208 61.097 173.9693
2.686535 61.225 173.4923
2.706003 61.352 173.0144
2.725612 61.479 172.5357
2.745363 61.605 172.0563
2.765257 61.731 171.5764
2.785295 61.856 171.0959
2.805478 61.981 170.6150
2.825808 62.106 170.1336
2.846285 62.230 169.6517
2.866910 62.354 169.1692
2.887685 62.478 168.6860
2.908611 62.601 168.2019
2.929688 62.724 167.7168
2.950917 62.847 167.2304
2.972301 62.969 166.7426
2.993839 63.090 166.2534
3.015534 63.211 165.7627
3.037386 63.331 165.2709
3.059396 63.451 164.7780
3.081565 63.570 164.2844
3.103896 63.689 163.7902
3.126388 63.807 163.2957
3.149043 63.924 162.8011
3.171862 64.041 162.3065
3.194847 64.158 161.8122
3.217998 64.274 161.3181
3.241317 64.390 160.8243
3.264805 64.506 160.3307
3.288463 64.621 159.8369
3.312293 64.735 159.3428
3.336295 64.849 158.8481
3.360471 64.962 158.3525
3.384822 65.075 157.8561
3.409350 65.187 157.3591
3.434056 65.298 156.8615
3.458940 65.409 156.3637
3.484005 65.520 155.8660
3.509252 65.629 155.3686
3.534681 65.739 154.8717
3.560295 65.847 154.3757
3.586094 65.956 153.8806
3.612081 66.064 153.3864
3.638255 66.171 152.8929
3.664620 66.278 152.4001
3.691175 66.384 151.9075
3.717923 66.490 151.4149
3.744864 66.595 150.9222
3.772001 66.699 150.4294
3.799335 66.803 149.9366
3.826866 66.907 149.4443
3.854597 67.009 148.9527
3.882529 67.111 148.4620
3.910664 67.213 147.9727
3.939002 67.314 147.4850
3.967546 67.415 146.9989
3.996296 67.515 146.5146
4.025255 67.615 146.0318
4.054423 67.715 145.5503
4.083804 67.814 145.0699
4.113396 67.912 144.5904
4.143204 68.009 144.1118
4.173227 68.107 143.6341
4.203468 68.203 143.1576
4.233928 68.299 142.6826
4.264609 68.395 142.2092
4.295512 68.490 141.7379
4.326639 68.585 141.2685
4.357992 68.680 140.8014
4.389572 68.774 140.3363
4.421380 68.868 139.8732
4.453419 68.961 139.4119
4.485691 69.054 138.9521
4.518196 69.146 138.4940
4.550936 69.238 138.0373
4.583914 69.330 137.5824
4.617131 69.421 137.1293
4.650589 69.512 136.6781
4.684289 69.603 136.2290
4.718233 69.693 135.7821
4.752424 69.784 135.3373
4.786862 69.873 134.8945
4.821549 69.963 134.4537
4.856488 70.053 134.0147
4.891680 70.142 133.5774
4.927127 70.231 133.1417
4.962831 70.319 132.7076
4.998794 70.408 132.2749
5.035017 70.496 131.8438
5.071503 70.584 131.4141
5.108253 70.672 130.9858
5.145270 70.760 130.5590
5.182555 70.848 130.1334
5.220110 70.936 129.7091
5.257937 71.023 129.2859
5.296038 71.110 128.8636
5.334415 71.197 128.4420
5.373071 71.284 128.0212
5.412006 71.371 127.6008
5.451224 71.458 127.1809
5.490725 71.545 126.7612
5.530514 71.631 126.3418
5.570590 71.718 125.9225
5.610957 71.804 125.5034
5.651616 71.890 125.0842
5.692570 71.976 124.6650
5.733821 72.061 124.2455
5.775370 72.147 123.8258
5.817221 72.232 123.4056
5.859375 72.317 122.9848
5.901834 72.402 122.5634
5.944602 72.486 122.1414
5.987679 72.570 121.7187
6.031068 72.654 121.2954
6.074771 72.737 120.8715
6.118792 72.820 120.4471
6.163131 72.903 120.0223
6.207792 72.985 119.5969
6.252776 73.067 119.1709
6.298086 73.149 118.7443
6.343725 73.229 118.3171
6.389694 73.310 117.8896
6.435996 73.390 117.4619
6.482634 73.469 117.0343
6.529610 73.548 116.6069
6.576926 73.626 116.1799
6.624585 73.704 115.7533
6.672590 73.781 115.3271
6.720942 73.858 114.9014
6.769645 73.934 114.4764
6.818700 74.009 114.0525
6.868111 74.084 113.6298
6.917881 74.159 113.2086
6.968010 74.233 112.7891
7.018504 74.306 112.3713
7.069362 74.379 111.9551
7.120590 74.451 111.5408
7.172189 74.523 111.1284
7.224161 74.595 110.7180
7.276511 74.666 110.3099
7.329239 74.737 109.9041
7.382350 74.807 109.5006
7.435845 74.878 109.0993
7.489729 74.948 108.7002
7.544002 75.017 108.3031
7.598669 75.087 107.9080
7.653732 75.156 107.5147
7.709194 75.226 107.1233
7.765058 75.295 106.7335
7.821327 75.364 106.3451
7.878004 75.434 105.9579
7.935091 75.503 105.5716
7.992592 75.572 105.1860
8.050510 75.641 104.8007
8.108847 75.710 104.4155
8.167607 75.779 104.0304
8.226793 75.848 103.6449
8.286408 75.917 103.2589
8.346454 75.986 102.8720
8.406936 76.055 102.4841
8.467856 76.124 102.0948
8.529218 76.192 101.7041
8.591024 76.261 101.3118
8.653278 76.329 100.9180
8.715983 76.397 100.5224
8.779143 76.464 100.1252
8.842760 76.531 99.7261
8.906839 76.598 99.3252
8.971381 76.664 98.9228
9.036392 76.730 98.5189
9.101873 76.796 98.1137
9.167829 76.860 97.7074
9.234263 76.925 97.3001
9.301178 76.988 96.8921
9.368578 77.051 96.4836
9.436467 77.114 96.0748
9.504847 77.176 95.6662
9.573723 77.237 95.2579
9.643099 77.297 94.8502
9.712976 77.358 94.4432
9.783361 77.417 94.0371
9.854255 77.476 93.6323
9.925663 77.535 93.2289
9.997588 77.593 92.8268
10.070035 77.651 92.4264
10.143007 77.708 92.0275
10.216507 77.765 91.6302
10.290540 77.822 91.2345
10.365109 77.879 90.8404
10.440219 77.935 90.4478
10.515873 77.991 90.0564
10.592076 78.047 89.6663
10.668830 78.103 89.2772
10.746141 78.159 88.8890
10.824012 78.215 88.5015
10.902447 78.270 88.1145
10.981451 78.326 87.7278
11.061027 78.381 87.3414
11.141180 78.436 86.9550
11.221913 78.491 86.5685
11.303232 78.546 86.1818
11.385140 78.601 85.7948
11.467641 78.656 85.4073
11.550741 78.710 85.0195
11.634442 78.765 84.6311
11.718750 78.819 84.2423
11.803669 78.873 83.8529
11.889203 78.926 83.4631
11.975357 78.980 83.0729
12.062136 79.033 82.6823
12.149543 79.086 82.2913
12.237583 79.138 81.9001
12.326262 79.190 81.5087
12.415583 79.242 81.1172
12.505552 79.294 80.7256
12.596172 79.346 80.3341
12.687449 79.397 79.9427
12.779387 79.448 79.5515
12.871992 79.498 79.1606
12.965268 79.548 78.7700
13.059220 79.598 78.3799
13.153852 79.648 77.9902
13.249170 79.697 77.6010
13.345179 79.747 77.2122
13.441884 79.796 76.8241
13.539289 79.844 76.4364
13.637401 79.893 76.0491
13.736223 79.941 75.6623
13.835761 79.989 75.2758
13.936021 80.037 74.8895
14.037007 80.085 74.5033
14.138725 80.132 74.1171
14.241180 80.180 73.7307
14.344377 80.227 73.3442
14.448323 80.273 72.9575
14.553021 80.320 72.5704
14.658478 80.366 72.1830
14.764700 80.412 71.7955
14.871691 80.457 71.4079
14.979457 80.502 71.0203
15.088005 80.546 70.6331
15.197339 80.590 70.2465
15.307465 80.634 69.8607
15.418389 80.677 69.4760
15.530117 80.719 69.0928
15.642655 80.762 68.7113
15.756008 80.803 68.3316
15.870182 80.845 67.9539
15.985184 80.886 67.5781
16.101019 80.927 67.2043
16.217694 80.968 66.8321
16.335214 81.008 66.4614
16.453586 81.049 66.0916
16.572815 81.090 65.7225
16.692909 81.130 65.3535
16.813872 81.171 64.9841
16.935713 81.211 64.6139
17.058436 81.251 64.2425
17.182048 81.291 63.8697
17.306556 81.331 63.4952
17.431967 81.370 63.1190
17.558286 81.409 62.7411
17.685521 81.447 62.3617
17.813677 81.485 61.9809
17.942762 81.521 61.5991
18.072783 81.558 61.2165
18.203746 81.593 60.8333
18.335658 81.628 60.4499
18.468526 81.662 60.0662
18.602356 81.696 59.6824
18.737156 81.728 59.2987
18.872934 81.760 58.9150
19.009695 81.791 58.5315
19.147447 81.821 58.1485
19.286197 81.849 57.7663
19.425953 81.877 57.3856
19.566721 81.903 57.0074
19.708510 81.928 56.6328
19.851326 81.952 56.2634
19.995177 81.974 55.9009
20.140070 81.995 55.5474
20.286013 82.015 55.2048
20.433014 82.034 54.8750
20.581080 82.052 54.5597
20.730219 82.070 54.2600
20.880439 82.088 53.9766
21.031747 82.108 53.7092
21.184152 82.129 53.4565
21.337661 82.152 53.2163
21.492282 82.178 52.9856
21.648024 82.206 52.7603
21.804895 82.238 52.5360
21.962902 82.273 52.3076
22.122054 82.310 52.0704
22.282360 82.351 51.8199
22.443827 82.392 51.5526
22.606464 82.435 51.2660
22.770280 82.479 50.9591
22.935283 82.522 50.6323
23.101481 82.563 50.2872
23.268884 82.603 49.9269
23.437500 82.640 49.5551
23.607338 82.675 49.1762
23.778406 82.708 48.7944
23.950714 82.738 48.4137
24.124271 82.767 48.0369
24.299086 82.794 47.6659
24.475167 82.821 47.3013
24.652524 82.847 46.9427
24.831166 82.873 46.5883
25.011103 82.899 46.2363
25.192344 82.926 45.8842
25.374898 82.953 45.5302
25.558775 82.979 45.1728
25.743984 83.005 44.8117
25.930536 83.031 44.4474
26.118439 83.055 44.0810
26.307704 83.078 43.7144
26.498341 83.100 43.3495
26.690359 83.121 42.9881
26.883768 83.141 42.6315
27.078579 83.160 42.2805
27.274801 83.179 41.9354
27.472446 83.198 41.5958
27.671522 83.217 41.2610
27.872042 83.237 40.9302
28.074014 83.256 40.6028
28.277450 83.276 40.2780
28.482360 83.296 39.9551
28.688755 83.316 39.6332
28.896645 83.337 39.3114
29.106042 83.358 38.9885
29.316957 83.379 38.6633
29.529400 83.401 38.3348
29.743382 83.422 38.0023
29.958915 83.442 37.6658
30.176009 83.462 37.3263
30.394677 83.480 36.9855
30.614929 83.497 36.6458
30.836778 83.512 36.3098
31.060234 83.527 35.9798
31.285309 83.540 35.6574
31.512015 83.554 35.3430
31.740364 83.567 35.0361
31.970368 83.581 34.7352
32.202039 83.595 34.4382
32.435388 83.610 34.1430
32.670428 83.625 33.8475
32.907171 83.641 33.5504
33.145630 83.657 33.2505
33.385817 83.672 32.9473
33.627745 83.688 32.6403
33.871425 83.703 32.3293
34.116871 83.718 32.0144
34.364096 83.732 31.6958
34.613113 83.746 31.3744
34.863934 83.758 31.0515
35.116572 83.769 30.7290
35.371041 83.779 30.4088
35.627354 83.789 30.0927
35.885525 83.798 29.7814
36.145566 83.808 29.4749
36.407492 83.817 29.1721
36.671316 83.828 28.8712
36.937051 83.838 28.5705
37.204712 83.849 28.2685
37.474313 83.861 27.9646
37.745867 83.872 27.6588
38.019389 83.883 27.3519
38.294893 83.894 27.0444
38.572394 83.905 26.7369
38.851905 83.916 26.4293
39.133442 83.926 26.1215
39.417019 83.936 25.8130
39.702651 83.946 25.5042
39.990353 83.955 25.1956
40.280140 83.964 24.8886
40.572026 83.971 24.5848
40.866028 83.978 24.2854
41.162160 83.984 23.9910
41.460438 83.991 23.7013
41.760877 83.997 23.4153
42.063494 84.003 23.1318
42.368303 84.009 22.8495
42.675322 84.014 22.5680
42.984565 84.020 22.2870
43.296048 84.024 22.0070
43.609789 84.029 21.7282
43.925804 84.033 21.4512
44.244108 84.037 21.1758
44.564719 84.041 20.9017
44.887654 84.045 20.6279
45.212928 84.050 20.3529
45.540560 84.055 20.0751
45.870565 84.060 19.7927
46.202962 84.065 19.5045
46.537768 84.070 19.2106
46.875000 84.074 18.9122
47.214676 84.076 18.6116
47.556813 84.078 18.3118
47.901429 84.080 18.0151
48.248542 84.080 17.7230
48.598171 84.081 17.4349
48.950334 84.082 17.1497
49.305048 84.083 16.8656
49.662333 84.084 16.5817
50.022206 84.084 16.2979
50.384688 84.084 16.0149
50.749796 84.083 15.7339
51.117550 84.082 15.4557
51.487969 84.081 15.1810
51.861072 84.079 14.9097
52.236879 84.076 14.6416
52.615409 84.074 14.3765
52.996681 84.072 14.1141
53.380717 84.069 13.8535
53.767536 84.067 13.5935
54.157158 84.065 13.3329
54.549603 84.062 13.0703
54.944892 84.060 12.8055
55.343045 84.057 12.5388
55.744084 84.054 12.2713
56.148028 84.050 12.0040
56.554900 84.046 11.7372
56.964720 84.041 11.4708
57.377510 84.036 11.2045
57.793291 84.030 10.9391
58.212085 84.023 10.6764
58.633914 84.015 10.4188
59.058799 84.007 10.1680
59.486764 83.999 9.9241
59.917829 83.991 9.6848
60.352019 83.984 9.4474
60.789354 83.978 9.2090
61.229859 83.972 8.9676
61.673556 83.966 8.7220
62.120468 83.960 8.4716
62.570618 83.954 8.2169
63.024031 83.947 7.9600
63.480729 83.940 7.7037
63.940736 83.932 7.4502
64.404077 83.925 7.1993
64.870776 83.918 6.9497
65.340856 83.910 6.6996
65.814343 83.903 6.4491
66.291261 83.894 6.2005
66.771635 83.884 5.9569
67.255489 83.873 5.7209
67.742850 83.861 5.4944
68.233743 83.848 5.2775
68.728193 83.835 5.0688
69.226226 83.823 4.8661
69.727867 83.810 4.6653
70.233144 83.799 4.4613
70.742083 83.787 4.2489
71.254709 83.776 4.0239
71.771050 83.763 3.7854
72.291132 83.750 3.5369
72.814984 83.734 3.2849
73.342631 83.717 3.0350
73.874102 83.700 2.7897
74.409424 83.683 2.5482
74.948626 83.667 2.3093
75.491734 83.650 2.0737
76.038779 83.633 1.8444
76.589787 83.617 1.6234
77.144788 83.600 1.4106
77.703811 83.584 1.2031
78.266885 83.568 0.9976
78.834039 83.551 0.7917
79.405303 83.534 0.5847
79.980706 83.516 0.3754
80.560280 83.497 0.1630
81.144053 83.477 -0.0529
81.732056 83.455 -0.2704
82.324320 83.432 -0.4862
82.920876 83.408 -0.6975
83.521755 83.385 -0.9031
84.126988 83.362 -1.1032
84.736607 83.340 -1.2991
85.350643 83.319 -1.4916
85.969129 83.298 -1.6817
86.592097 83.279 -1.8705
87.219579 83.260 -2.0594
87.851608 83.241 -2.2497
88.488217 83.221 -2.4412
89.129439 83.200 -2.6327
89.775308 83.178 -2.8219
90.425856 83.154 -3.0071
91.081119 83.130 -3.1880
91.741131 83.106 -3.3651
92.405925 83.081 -3.5402
93.075536 83.057 -3.7150
93.750000 83.033 -3.8915
94.429351 83.008 -4.0707
95.113625 82.984 -4.2517
95.802858 82.958 -4.4321
96.497085 82.931 -4.6085
97.196342 82.903 -4.7787
97.900667 82.875 -4.9426
98.610096 82.846 -5.1034
