* Measurement data measured by REW V5.31.3
* Source: Headset (CX31993 HIFI AUDIO), MICROPHONE (Master Volume), R, volume: 0.250
* Format: 256k Log Swept Sine, 1 sweep at -12.0 dBFS with no timing reference
* Dated: 12 31, 24 1:01:02 PM
* REW Settings:
*  C-weighting compensation: Off
*  Target level: 75.0 dB
* Note: ; 
* Measurement: Sony LB 400 MIN L
* Smoothing: 1/12 octave
* Frequency Step: 96 ppo
* Start Frequency: 0.36621094 Hz
*
* Freq(Hz) SPL(dB) Phase(degrees)
0.366211 31.531 131.6428
0.368865 31.516 131.6581
0.371538 31.494 131.6795
0.374230 31.466 131.7035
0.376942 31.435 131.7270
0.379673 31.402 131.7478
0.382424 31.367 131.7644
0.385196 31.331 131.7757
0.387987 31.294 131.7811
0.390798 31.257 131.7802
0.393630 31.220 131.7727
0.396483 31.182 131.7585
0.399356 31.144 131.7375
0.402250 31.105 131.7093
0.405165 31.067 131.6741
0.408101 31.028 131.6316
0.411058 30.989 131.5816
0.414037 30.949 131.5242
0.417037 30.909 131.4590
0.420059 30.869 131.3860
0.423103 30.829 131.3050
0.426169 30.788 131.2158
0.429257 30.747 131.1183
0.432368 30.706 131.0121
0.435501 30.665 130.8972
0.438656 30.623 130.7733
0.441835 30.581 130.6402
0.445037 30.538 130.4976
0.448262 30.495 130.3451
0.451510 30.452 130.1826
0.454782 30.409 130.0096
0.458077 30.365 129.8259
0.461397 30.321 129.6310
0.464740 30.277 129.4245
0.468108 30.232 129.2060
0.471500 30.187 128.9750
0.474917 30.142 128.7309
0.478358 30.096 128.4731
0.481825 30.051 128.2010
0.485316 30.004 127.9138
0.488833 29.958 127.6107
0.492375 29.911 127.2908
0.495943 29.863 126.9530
0.499537 29.816 126.5963
0.503157 29.768 126.2193
0.506803 29.719 125.8206
0.510475 29.671 125.3983
0.514175 29.622 124.9506
0.517900 29.572 124.4752
0.521653 29.523 123.9694
0.525434 29.473 123.4300
0.529241 29.422 122.8533
0.533076 29.371 122.2348
0.536939 29.320 121.5691
0.540830 29.268 120.8496
0.544749 29.217 120.0679
0.548696 29.164 119.2136
0.552673 29.111 118.2738
0.556677 29.058 117.2311
0.560711 29.005 116.0631
0.564774 28.951 114.7396
0.568867 28.897 113.2187
0.572989 28.842 111.4416
0.577141 28.787 109.3222
0.581324 28.732 106.7308
0.585536 28.676 103.4632
0.589779 28.620 99.1836
0.594053 28.563 93.3131
0.598358 28.506 84.8188
0.602694 28.449 71.9124
0.607061 28.391 52.3292
0.611460 28.332 26.8244
0.615891 28.274 2.8431
0.620354 28.214 -14.2299
0.624849 28.155 -25.3962
0.629377 28.095 -32.9100
0.633938 28.034 -38.2630
0.638532 27.974 -42.2961
0.643159 27.912 -45.4841
0.647819 27.851 -48.1075
0.652514 27.788 -50.3392
0.657242 27.726 -52.2910
0.662005 27.663 -54.0377
0.666802 27.599 -55.6311
0.671634 27.535 -57.1084
0.676501 27.471 -58.4966
0.681403 27.406 -59.8158
0.686341 27.341 -61.0814
0.691314 27.276 -62.3049
0.696324 27.211 -63.4954
0.701370 27.147 -64.6597
0.706452 27.085 -65.8025
0.711571 27.028 -66.9267
0.716728 26.979 -68.0332
0.721921 26.942 -69.1206
0.727153 26.924 -70.1849
0.732422 26.931 -71.2200
0.737729 26.968 -72.2184
0.743075 27.033 -73.1738
0.748460 27.124 -74.0819
0.753883 27.236 -74.9414
0.759346 27.365 -75.7532
0.764849 27.509 -76.5194
0.770391 27.666 -77.2434
0.775974 27.835 -77.9287
0.781597 28.016 -78.5787
0.787261 28.208 -79.1970
0.792966 28.411 -79.7868
0.798712 28.624 -80.3511
0.804500 28.848 -80.8927
0.810329 29.081 -81.4143
0.816201 29.325 -81.9182
0.822116 29.579 -82.4065
0.828073 29.842 -82.8813
0.834074 30.114 -83.3444
0.840118 30.396 -83.7975
0.846206 30.686 -84.2421
0.852338 30.985 -84.6798
0.858514 31.292 -85.1118
0.864735 31.606 -85.5395
0.871001 31.929 -85.9640
0.877313 32.258 -86.3863
0.883670 32.595 -86.8075
0.890074 32.937 -87.2285
0.896524 33.286 -87.6504
0.903020 33.640 -88.0738
0.909564 34.000 -88.4997
0.916155 34.364 -88.9287
0.922794 34.732 -89.3617
0.929481 35.104 -89.7994
0.936216 35.479 -90.2423
0.943000 35.857 -90.6913
0.949834 36.236 -91.1468
0.956717 36.617 -91.6096
0.963649 36.998 -92.0801
0.970632 37.380 -92.5591
0.977666 37.761 -93.0471
0.984750 38.140 -93.5446
0.991886 38.518 -94.0523
0.999074 38.892 -94.5705
1.006314 39.263 -95.0999
1.013606 39.630 -95.6411
1.020951 39.991 -96.1944
1.028349 40.346 -96.7605
1.035801 40.694 -97.3398
1.043307 41.034 -97.9327
1.050867 41.366 -98.5398
1.058482 41.688 -99.1612
1.066152 42.000 -99.7972
1.073878 42.301 -100.4475
1.081660 42.591 -101.1118
1.089498 42.871 -101.7889
1.097393 43.141 -102.4771
1.105345 43.402 -103.1742
1.113355 43.655 -103.8777
1.121423 43.902 -104.5852
1.129549 44.142 -105.2947
1.137734 44.376 -106.0045
1.145979 44.606 -106.7134
1.154283 44.830 -107.4206
1.162647 45.049 -108.1252
1.171072 45.264 -108.8268
1.179558 45.475 -109.5248
1.188106 45.681 -110.2191
1.196715 45.882 -110.9093
1.205387 46.080 -111.5954
1.214122 46.274 -112.2771
1.222920 46.464 -112.9546
1.231782 46.650 -113.6278
1.240708 46.833 -114.2968
1.249699 47.012 -114.9618
1.258754 47.188 -115.6229
1.267876 47.362 -116.2804
1.277063 47.533 -116.9345
1.286318 47.701 -117.5856
1.295639 47.867 -118.2339
1.305027 48.031 -118.8799
1.314484 48.194 -119.5238
1.324009 48.355 -120.1663
1.333604 48.515 -120.8075
1.343268 48.674 -121.4482
1.353002 48.833 -122.0886
1.362806 48.991 -122.7295
1.372681 49.150 -123.3711
1.382628 49.310 -124.0143
1.392647 49.470 -124.6594
1.402739 49.631 -125.3070
1.412904 49.795 -125.9578
1.423142 49.960 -126.6122
1.433455 50.126 -127.2708
1.443843 50.295 -127.9338
1.454305 50.466 -128.6015
1.464844 50.638 -129.2737
1.475459 50.810 -129.9501
1.486150 50.983 -130.6301
1.496920 51.154 -131.3132
1.507767 51.325 -131.9986
1.518693 51.494 -132.6857
1.529698 51.663 -133.3740
1.540783 51.829 -134.0632
1.551948 51.994 -134.7527
1.563194 52.158 -135.4424
1.574521 52.320 -136.1320
1.585931 52.481 -136.8213
1.597423 52.641 -137.5101
1.608999 52.799 -138.1984
1.620658 52.956 -138.8862
1.632402 53.112 -139.5735
1.644232 53.267 -140.2603
1.656146 53.421 -140.9467
1.668147 53.574 -141.6329
1.680235 53.726 -142.3190
1.692411 53.877 -143.0053
1.704675 54.028 -143.6920
1.717028 54.178 -144.3794
1.729470 54.328 -145.0678
1.742003 54.477 -145.7576
1.754626 54.626 -146.4492
1.767341 54.775 -147.1432
1.780147 54.924 -147.8400
1.793047 55.072 -148.5403
1.806040 55.221 -149.2448
1.819128 55.369 -149.9543
1.832310 55.517 -150.6697
1.845587 55.664 -151.3914
1.858961 55.810 -152.1198
1.872432 55.955 -152.8548
1.886001 56.099 -153.5960
1.899667 56.242 -154.3425
1.913433 56.384 -155.0936
1.927299 56.525 -155.8483
1.941265 56.664 -156.6057
1.955332 56.802 -157.3648
1.969501 56.939 -158.1248
1.983773 57.075 -158.8849
1.998148 57.210 -159.6443
2.012627 57.344 -160.4024
2.027212 57.477 -161.1585
2.041902 57.608 -161.9122
2.056698 57.740 -162.6630
2.071602 57.870 -163.4105
2.086614 58.000 -164.1545
2.101734 58.128 -164.8947
2.116964 58.257 -165.6312
2.132304 58.384 -166.3640
2.147756 58.512 -167.0936
2.163320 58.638 -167.8207
2.178996 58.764 -168.5464
2.194786 58.889 -169.2721
2.210690 59.013 -169.9995
2.226710 59.137 -170.7301
2.242845 59.259 -171.4647
2.259098 59.380 -172.2036
2.275468 59.499 -172.9466
2.291957 59.617 -173.6930
2.308566 59.734 -174.4420
2.325295 59.850 -175.1925
2.342145 59.964 -175.9433
2.359117 60.078 -176.6935
2.376212 60.190 -177.4418
2.393431 60.301 -178.1872
2.410775 60.411 -178.9288
2.428244 60.521 -179.6654
2.445840 60.629 179.6038
2.463564 60.737 178.8795
2.481416 60.844 178.1622
2.499397 60.950 177.4525
2.517509 61.055 176.7500
2.535752 61.160 176.0543
2.554127 61.263 175.3643
2.572635 61.366 174.6782
2.591277 61.468 173.9941
2.610055 61.568 173.3108
2.628968 61.667 172.6272
2.648019 61.765 171.9431
2.667208 61.862 171.2590
2.686535 61.957 170.5754
2.706003 62.051 169.8934
2.725612 62.144 169.2141
2.745363 62.236 168.5387
2.765257 62.326 167.8685
2.785295 62.417 167.2047
2.805478 62.506 166.5486
2.825808 62.595 165.9014
2.846285 62.683 165.2642
2.866910 62.771 164.6376
2.887685 62.858 164.0220
2.908611 62.945 163.4175
2.929688 63.031 162.8231
2.950917 63.116 162.2378
2.972301 63.200 161.6602
2.993839 63.284 161.0892
3.015534 63.366 160.5242
3.037386 63.448 159.9650
3.059396 63.528 159.4116
3.081565 63.608 158.8644
3.103896 63.688 158.3242
3.126388 63.767 157.7914
3.149043 63.845 157.2670
3.171862 63.924 156.7517
3.194847 64.003 156.2464
3.217998 64.082 155.7520
3.241317 64.161 155.2691
3.264805 64.241 154.7983
3.288463 64.321 154.3399
3.312293 64.401 153.8939
3.336295 64.481 153.4597
3.360471 64.562 153.0370
3.384822 64.642 152.6249
3.409350 64.723 152.2229
3.434056 64.804 151.8300
3.458940 64.885 151.4458
3.484005 64.967 151.0696
3.509252 65.049 150.7009
3.534681 65.132 150.3393
3.560295 65.217 149.9845
3.586094 65.302 149.6365
3.612081 65.389 149.2953
3.638255 65.478 148.9615
3.664620 65.568 148.6355
3.691175 65.659 148.3181
3.717923 65.752 148.0093
3.744864 65.847 147.7090
3.772001 65.942 147.4163
3.799335 66.039 147.1299
3.826866 66.138 146.8481
3.854597 66.238 146.5692
3.882529 66.339 146.2914
3.910664 66.442 146.0131
3.939002 66.546 145.7329
3.967546 66.652 145.4499
3.996296 66.760 145.1638
4.025255 66.869 144.8747
4.054423 66.980 144.5834
4.083804 67.093 144.2907
4.113396 67.207 143.9968
4.143204 67.324 143.7012
4.173227 67.442 143.4030
4.203468 67.561 143.1007
4.233928 67.681 142.7926
4.264609 67.803 142.4771
4.295512 67.925 142.1525
4.326639 68.048 141.8176
4.357992 68.172 141.4717
4.389572 68.296 141.1146
4.421380 68.421 140.7466
4.453419 68.547 140.3685
4.485691 68.673 139.9810
4.518196 68.800 139.5842
4.550936 68.928 139.1784
4.583914 69.055 138.7631
4.617131 69.183 138.3380
4.650589 69.310 137.9024
4.684289 69.437 137.4558
4.718233 69.563 136.9975
4.752424 69.688 136.5273
4.786862 69.813 136.0450
4.821549 69.937 135.5509
4.856488 70.059 135.0458
4.891680 70.181 134.5305
4.927127 70.302 134.0059
4.962831 70.422 133.4732
4.998794 70.541 132.9330
5.035017 70.658 132.3860
5.071503 70.773 131.8323
5.108253 70.887 131.2719
5.145270 70.999 130.7045
5.182555 71.109 130.1298
5.220110 71.217 129.5480
5.257937 71.323 128.9603
5.296038 71.427 128.3678
5.334415 71.529 127.7722
5.373071 71.630 127.1751
5.412006 71.728 126.5778
5.451224 71.824 125.9810
5.490725 71.918 125.3848
5.530514 72.010 124.7892
5.570590 72.099 124.1937
5.610957 72.186 123.5988
5.651616 72.272 123.0055
5.692570 72.355 122.4151
5.733821 72.436 121.8294
5.775370 72.515 121.2499
5.817221 72.592 120.6777
5.859375 72.667 120.1133
5.901834 72.741 119.5567
5.944602 72.812 119.0077
5.987679 72.882 118.4666
6.031068 72.950 117.9338
6.074771 73.016 117.4103
6.118792 73.081 116.8971
6.163131 73.145 116.3954
6.207792 73.208 115.9057
6.252776 73.270 115.4286
6.298086 73.331 114.9637
6.343725 73.391 114.5111
6.389694 73.451 114.0705
6.435996 73.510 113.6419
6.482634 73.568 113.2253
6.529610 73.627 112.8209
6.576926 73.685 112.4288
6.624585 73.744 112.0492
6.672590 73.803 111.6817
6.720942 73.862 111.3258
6.769645 73.921 110.9807
6.818700 73.981 110.6455
6.868111 74.042 110.3193
6.917881 74.104 110.0014
6.968010 74.167 109.6913
7.018504 74.231 109.3885
7.069362 74.296 109.0923
7.120590 74.362 108.8019
7.172189 74.429 108.5157
7.224161 74.498 108.2324
7.276511 74.568 107.9508
7.329239 74.639 107.6700
7.382350 74.711 107.3892
7.435845 74.784 107.1077
7.489729 74.859 106.8248
7.544002 74.934 106.5391
7.598669 75.011 106.2496
7.653732 75.088 105.9551
7.709194 75.167 105.6550
7.765058 75.246 105.3485
7.821327 75.325 105.0355
7.878004 75.405 104.7153
7.935091 75.486 104.3875
7.992592 75.566 104.0516
8.050510 75.647 103.7069
8.108847 75.727 103.3534
8.167607 75.807 102.9910
8.226793 75.887 102.6199
8.286408 75.966 102.2401
8.346454 76.045 101.8519
8.406936 76.123 101.4554
8.467856 76.200 101.0509
8.529218 76.276 100.6386
8.591024 76.351 100.2191
8.653278 76.425 99.7932
8.715983 76.497 99.3615
8.779143 76.568 98.9247
8.842760 76.638 98.4834
8.906839 76.706 98.0381
8.971381 76.772 97.5898
9.036392 76.837 97.1394
9.101873 76.900 96.6878
9.167829 76.962 96.2360
9.234263 77.023 95.7845
9.301178 77.082 95.3342
9.368578 77.139 94.8858
9.436467 77.195 94.4403
9.504847 77.250 93.9984
9.573723 77.304 93.5609
9.643099 77.356 93.1281
9.712976 77.408 92.7006
9.783361 77.459 92.2787
9.854255 77.509 91.8629
9.925663 77.559 91.4533
9.997588 77.608 91.0502
10.070035 77.657 90.6533
10.143007 77.706 90.2624
10.216507 77.756 89.8773
10.290540 77.805 89.4976
10.365109 77.855 89.1228
10.440219 77.905 88.7523
10.515873 77.956 88.3852
10.592076 78.008 88.0206
10.668830 78.061 87.6578
10.746141 78.114 87.2957
10.824012 78.168 86.9336
10.902447 78.223 86.5701
10.981451 78.278 86.2044
11.061027 78.335 85.8356
11.141180 78.392 85.4627
11.221913 78.450 85.0850
11.303232 78.508 84.7017
11.385140 78.566 84.3123
11.467641 78.625 83.9163
11.550741 78.684 83.5134
11.634442 78.742 83.1036
11.718750 78.800 82.6868
11.803669 78.858 82.2634
11.889203 78.915 81.8337
11.975357 78.971 81.3984
12.062136 79.027 80.9583
12.149543 79.081 80.5143
12.237583 79.134 80.0674
12.326262 79.186 79.6189
12.415583 79.236 79.1701
12.505552 79.285 78.7225
12.596172 79.333 78.2772
12.687449 79.380 77.8356
12.779387 79.426 77.3992
12.871992 79.471 76.9689
12.965268 79.515 76.5458
13.059220 79.558 76.1304
13.153852 79.601 75.7234
13.249170 79.644 75.3247
13.345179 79.688 74.9341
13.441884 79.732 74.5509
13.539289 79.776 74.1742
13.637401 79.822 73.8026
13.736223 79.868 73.4344
13.835761 79.916 73.0677
13.936021 79.964 72.7007
14.037007 80.014 72.3313
14.138725 80.064 71.9577
14.241180 80.115 71.5783
14.344377 80.166 71.1920
14.448323 80.217 70.7981
14.553021 80.267 70.3966
14.658478 80.316 69.9883
14.764700 80.364 69.5743
14.871691 80.410 69.1567
14.979457 80.454 68.7383
15.088005 80.496 68.3220
15.197339 80.536 67.9111
15.307465 80.574 67.5090
15.418389 80.610 67.1188
15.530117 80.645 66.7429
15.642655 80.680 66.3831
15.756008 80.714 66.0399
15.870182 80.750 65.7129
15.985184 80.788 65.3997
16.101019 80.828 65.0967
16.217694 80.872 64.7993
16.335214 80.918 64.5015
16.453586 80.969 64.1967
16.572815 81.022 63.8781
16.692909 81.078 63.5395
16.813872 81.136 63.1755
16.935713 81.194 62.7822
17.058436 81.252 62.3576
17.182048 81.309 61.9019
17.306556 81.362 61.4173
17.431967 81.411 60.9082
17.558286 81.455 60.3809
17.685521 81.494 59.8430
17.813677 81.526 59.3026
17.942762 81.554 58.7682
18.072783 81.576 58.2476
18.203746 81.594 57.7472
18.335658 81.609 57.2715
18.468526 81.623 56.8226
18.602356 81.636 56.3999
18.737156 81.650 56.0005
18.872934 81.667 55.6190
19.009695 81.686 55.2490
19.147447 81.707 54.8832
19.286197 81.731 54.5150
19.425953 81.756 54.1392
19.566721 81.782 53.7531
19.708510 81.806 53.3568
19.851326 81.829 52.9533
19.995177 81.849 52.5482
20.140070 81.866 52.1492
20.286013 81.881 51.7647
20.433014 81.893 51.4028
20.581080 81.904 51.0699
20.730219 81.916 50.7695
20.880439 81.930 50.5013
21.031747 81.949 50.2607
21.184152 81.973 50.0394
21.337661 82.004 49.8260
21.492282 82.042 49.6077
21.648024 82.086 49.3717
21.804895 82.135 49.1077
21.962902 82.186 48.8087
22.122054 82.238 48.4726
22.282360 82.288 48.1018
22.443827 82.335 47.7031
22.606464 82.378 47.2866
22.770280 82.416 46.8636
22.935283 82.450 46.4454
23.101481 82.480 46.0414
23.268884 82.508 45.6575
23.437500 82.535 45.2955
23.607338 82.563 44.9534
23.778406 82.594 44.6251
23.950714 82.627 44.3029
24.124271 82.662 43.9781
24.299086 82.699 43.6439
24.475167 82.737 43.2953
24.652524 82.774 42.9314
24.831166 82.810 42.5540
25.011103 82.843 42.1677
25.192344 82.873 41.7786
25.374898 82.900 41.3924
25.558775 82.925 41.0135
25.743984 82.949 40.6440
25.930536 82.972 40.2830
26.118439 82.996 39.9275
26.307704 83.020 39.5732
26.498341 83.045 39.2155
26.690359 83.069 38.8511
26.883768 83.093 38.4787
27.078579 83.115 38.0993
27.274801 83.134 37.7163
27.472446 83.152 37.3340
27.671522 83.167 36.9572
27.872042 83.181 36.5894
28.074014 83.195 36.2322
28.277450 83.209 35.8850
28.482360 83.223 35.5454
28.688755 83.239 35.2094
28.896645 83.257 34.8728
29.106042 83.276 34.5321
29.316957 83.295 34.1848
29.529400 83.315 33.8300
29.743382 83.335 33.4677
29.958915 83.355 33.0988
30.176009 83.375 32.7242
30.394677 83.395 32.3445
30.614929 83.414 31.9601
30.836778 83.432 31.5710
31.060234 83.450 31.1780
31.285309 83.467 30.7821
31.512015 83.483 30.3854
31.740364 83.497 29.9910
31.970368 83.509 29.6018
32.202039 83.521 29.2210
32.435388 83.532 28.8506
32.670428 83.542 28.4913
32.907171 83.553 28.1427
33.145630 83.565 27.8031
33.385817 83.577 27.4703
33.627745 83.590 27.1420
33.871425 83.603 26.8158
34.116871 83.618 26.4901
34.364096 83.632 26.1633
34.613113 83.647 25.8344
34.863934 83.662 25.5023
35.116572 83.677 25.1665
35.371041 83.691 24.8268
35.627354 83.705 24.4835
35.885525 83.718 24.1375
36.145566 83.729 23.7903
36.407492 83.740 23.4432
36.671316 83.751 23.0972
36.937051 83.760 22.7523
37.204712 83.770 22.4076
37.474313 83.779 22.0618
37.745867 83.789 21.7133
38.019389 83.797 21.3611
38.294893 83.805 21.0057
38.572394 83.812 20.6490
38.851905 83.818 20.2938
39.133442 83.822 19.9437
39.417019 83.825 19.6014
39.702651 83.829 19.2689
39.990353 83.832 18.9458
40.280140 83.837 18.6306
40.572026 83.842 18.3200
40.866028 83.849 18.0105
41.162160 83.858 17.6986
41.460438 83.866 17.3816
41.760877 83.876 17.0579
42.063494 83.885 16.7266
42.368303 83.893 16.3881
42.675322 83.901 16.0434
42.984565 83.907 15.6941
43.296048 83.912 15.3422
43.609789 83.916 14.9895
43.925804 83.918 14.6377
44.244108 83.919 14.2881
44.564719 83.920 13.9415
44.887654 83.919 13.5981
45.212928 83.919 13.2582
45.540560 83.918 12.9213
45.870565 83.917 12.5867
46.202962 83.916 12.2526
46.537768 83.917 11.9171
46.875000 83.917 11.5778
47.214676 83.918 11.2334
47.556813 83.918 10.8843
47.901429 83.918 10.5323
48.248542 83.917 10.1805
48.598171 83.915 9.8318
48.950334 83.913 9.4873
49.305048 83.912 9.1470
49.662333 83.910 8.8095
50.022206 83.909 8.4738
50.384688 83.907 8.1396
50.749796 83.905 7.8083
51.117550 83.903 7.4810
51.487969 83.901 7.1583
51.861072 83.898 6.8395
52.236879 83.896 6.5223
52.615409 83.894 6.2043
52.996681 83.891 5.8833
53.380717 83.888 5.5585
53.767536 83.884 5.2302
54.157158 83.879 4.9001
54.549603 83.872 4.5701
54.944892 83.865 4.2418
55.343045 83.856 3.9163
55.744084 83.847 3.5931
56.148028 83.838 3.2720
56.554900 83.829 2.9524
56.964720 83.819 2.6349
57.377510 83.810 2.3203
57.793291 83.800 2.0087
58.212085 83.792 1.6987
58.633914 83.784 1.3874
59.058799 83.776 1.0719
59.486764 83.768 0.7511
59.917829 83.760 0.4261
60.352019 83.750 0.0994
60.789354 83.739 -0.2263
61.229859 83.728 -0.5495
61.673556 83.715 -0.8694
62.120468 83.702 -1.1865
62.570618 83.689 -1.5018
63.024031 83.675 -1.8174
63.480729 83.661 -2.1350
63.940736 83.647 -2.4556
64.404077 83.631 -2.7793
64.870776 83.615 -3.1058
65.340856 83.598 -3.4350
65.814343 83.580 -3.7644
66.291261 83.561 -4.0885
66.771635 83.541 -4.4003
67.255489 83.521 -4.6959
67.742850 83.504 -4.9794
68.233743 83.490 -5.2621
68.728193 83.479 -5.5558
69.226226 83.469 -5.8665
69.727867 83.458 -6.1913
70.233144 83.445 -6.5220
70.742083 83.431 -6.8507
71.254709 83.416 -7.1730
71.771050 83.400 -7.4893
72.291132 83.385 -7.8030
72.814984 83.369 -8.1177
73.342631 83.353 -8.4346
73.874102 83.336 -8.7521
74.409424 83.319 -9.0685
74.948626 83.301 -9.3831
75.491734 83.283 -9.6968
76.038779 83.264 -10.0111
76.589787 83.245 -10.3269
77.144788 83.225 -10.6444
77.703811 83.205 -10.9631
78.266885 83.183 -11.2812
78.834039 83.160 -11.5958
79.405303 83.135 -11.9043
79.980706 83.110 -12.2053
80.560280 83.084 -12.4990
81.144053 83.058 -12.7863
81.732056 83.032 -13.0682
82.324320 83.005 -13.3466
82.920876 82.979 -13.6232
83.521755 82.952 -13.8995
84.126988 82.925 -14.1770
84.736607 82.898 -14.4570
85.350643 82.870 -14.7411
85.969129 82.842 -15.0300
86.592097 82.813 -15.3226
87.219579 82.783 -15.6168
87.851608 82.753 -15.9095
88.488217 82.721 -16.1990
89.129439 82.689 -16.4841
89.775308 82.658 -16.7652
90.425856 82.626 -17.0434
91.081119 82.594 -17.3199
91.741131 82.562 -17.5962
92.405925 82.529 -17.8729
93.075536 82.496 -18.1495
93.750000 82.462 -18.4249
94.429351 82.427 -18.6990
95.113625 82.392 -18.9730
95.802858 82.357 -19.2483
96.497085 82.321 -19.5248
97.196342 82.286 -19.8018
97.900667 82.250 -20.0801
98.610096 82.215 -20.3627
99.324665 82.178 -20.6509
