* Measurement data measured by REW V5.31.3
* Source: Headset (CX31993 HIFI AUDIO), MICROPHONE (Master Volume), R, volume: 0.250
* Format: 256k Log Swept Sine, 1 sweep at -12.0 dBFS with no timing reference
* Dated: 12 31, 24 1:05:40 PM
* REW Settings:
*  C-weighting compensation: Off
*  Target level: 75.0 dB
* Note: ; 
* Measurement: Sony LB 16K MIN L
* Smoothing: 1/12 octave
* Frequency Step: 96 ppo
* Start Frequency: 0.36621094 Hz
*
* Freq(Hz) SPL(dB) Phase(degrees)
0.366211 42.233 -74.5919
0.368865 42.246 -74.6790
0.371538 42.266 -74.8090
0.374230 42.291 -74.9711
0.376942 42.319 -75.1561
0.379673 42.349 -75.3575
0.382424 42.380 -75.5706
0.385196 42.413 -75.7928
0.387987 42.445 -76.0226
0.390798 42.478 -76.2590
0.393630 42.512 -76.5015
0.396483 42.545 -76.7499
0.399356 42.579 -77.0040
0.402250 42.613 -77.2638
0.405165 42.648 -77.5293
0.408101 42.683 -77.8003
0.411058 42.718 -78.0769
0.414037 42.753 -78.3590
0.417037 42.788 -78.6466
0.420059 42.824 -78.9397
0.423103 42.860 -79.2383
0.426169 42.896 -79.5422
0.429257 42.933 -79.8515
0.432368 42.969 -80.1661
0.435501 43.006 -80.4859
0.438656 43.044 -80.8110
0.441835 43.081 -81.1412
0.445037 43.119 -81.4765
0.448262 43.157 -81.8168
0.451510 43.195 -82.1621
0.454782 43.234 -82.5122
0.458077 43.273 -82.8672
0.461397 43.312 -83.2269
0.464740 43.352 -83.5912
0.468108 43.392 -83.9601
0.471500 43.432 -84.3334
0.474917 43.472 -84.7111
0.478358 43.513 -85.0931
0.481825 43.554 -85.4793
0.485316 43.595 -85.8695
0.488833 43.637 -86.2637
0.492375 43.678 -86.6618
0.495943 43.721 -87.0637
0.499537 43.763 -87.4691
0.503157 43.806 -87.8782
0.506803 43.849 -88.2906
0.510475 43.892 -88.7064
0.514175 43.936 -89.1253
0.517900 43.980 -89.5473
0.521653 44.024 -89.9723
0.525434 44.069 -90.4001
0.529241 44.114 -90.8306
0.533076 44.159 -91.2637
0.536939 44.205 -91.6993
0.540830 44.251 -92.1372
0.544749 44.297 -92.5774
0.548696 44.344 -93.0197
0.552673 44.391 -93.4641
0.556677 44.438 -93.9103
0.560711 44.486 -94.3582
0.564774 44.534 -94.8079
0.568867 44.582 -95.2591
0.572989 44.631 -95.7117
0.577141 44.680 -96.1657
0.581324 44.730 -96.6210
0.585536 44.779 -97.0774
0.589779 44.829 -97.5348
0.594053 44.880 -97.9932
0.598358 44.931 -98.4525
0.602694 44.982 -98.9126
0.607061 45.034 -99.3733
0.611460 45.086 -99.8347
0.615891 45.138 -100.2967
0.620354 45.191 -100.7592
0.624849 45.244 -101.2221
0.629377 45.297 -101.6853
0.633938 45.351 -102.1489
0.638532 45.406 -102.6128
0.643159 45.460 -103.0770
0.647819 45.515 -103.5413
0.652514 45.571 -104.0059
0.657242 45.627 -104.4706
0.662005 45.683 -104.9354
0.666802 45.740 -105.4004
0.671634 45.797 -105.8655
0.676501 45.854 -106.3308
0.681403 45.912 -106.7962
0.686341 45.971 -107.2618
0.691314 46.029 -107.7277
0.696324 46.089 -108.1938
0.701370 46.148 -108.6602
0.706452 46.208 -109.1270
0.711571 46.268 -109.5944
0.716728 46.329 -110.0625
0.721921 46.389 -110.5316
0.727153 46.449 -111.0020
0.732422 46.509 -111.4741
0.737729 46.568 -111.9484
0.743075 46.628 -112.4253
0.748460 46.687 -112.9050
0.753883 46.745 -113.3876
0.759346 46.804 -113.8731
0.764849 46.863 -114.3615
0.770391 46.923 -114.8527
0.775974 46.982 -115.3465
0.781597 47.042 -115.8426
0.787261 47.102 -116.3410
0.792966 47.162 -116.8413
0.798712 47.223 -117.3435
0.804500 47.284 -117.8473
0.810329 47.345 -118.3526
0.816201 47.406 -118.8591
0.822116 47.468 -119.3666
0.828073 47.530 -119.8750
0.834074 47.592 -120.3841
0.840118 47.654 -120.8937
0.846206 47.717 -121.4037
0.852338 47.780 -121.9138
0.858514 47.843 -122.4239
0.864735 47.907 -122.9339
0.871001 47.970 -123.4436
0.877313 48.034 -123.9528
0.883670 48.098 -124.4614
0.890074 48.163 -124.9693
0.896524 48.228 -125.4763
0.903020 48.293 -125.9823
0.909564 48.358 -126.4873
0.916155 48.423 -126.9910
0.922794 48.489 -127.4934
0.929481 48.555 -127.9944
0.936216 48.621 -128.4940
0.943000 48.688 -128.9919
0.949834 48.754 -129.4882
0.956717 48.821 -129.9827
0.963649 48.888 -130.4755
0.970632 48.956 -130.9665
0.977666 49.023 -131.4555
0.984750 49.091 -131.9427
0.991886 49.159 -132.4279
0.999074 49.227 -132.9111
1.006314 49.296 -133.3923
1.013606 49.364 -133.8716
1.020951 49.433 -134.3488
1.028349 49.502 -134.8241
1.035801 49.572 -135.2974
1.043307 49.641 -135.7688
1.050867 49.711 -136.2383
1.058482 49.781 -136.7061
1.066152 49.851 -137.1722
1.073878 49.921 -137.6369
1.081660 49.992 -138.1005
1.089498 50.062 -138.5633
1.097393 50.133 -139.0260
1.105345 50.204 -139.4891
1.113355 50.275 -139.9534
1.121423 50.346 -140.4192
1.129549 50.417 -140.8869
1.137734 50.488 -141.3566
1.145979 50.559 -141.8285
1.154283 50.630 -142.3026
1.162647 50.702 -142.7786
1.171072 50.773 -143.2566
1.179558 50.845 -143.7363
1.188106 50.916 -144.2176
1.196715 50.988 -144.7004
1.205387 51.060 -145.1844
1.214122 51.132 -145.6695
1.222920 51.204 -146.1555
1.231782 51.276 -146.6421
1.240708 51.348 -147.1291
1.249699 51.421 -147.6163
1.258754 51.493 -148.1035
1.267876 51.566 -148.5903
1.277063 51.639 -149.0767
1.286318 51.712 -149.5622
1.295639 51.785 -150.0466
1.305027 51.858 -150.5297
1.314484 51.932 -151.0111
1.324009 52.005 -151.4905
1.333604 52.079 -151.9677
1.343268 52.153 -152.4423
1.353002 52.228 -152.9140
1.362806 52.302 -153.3825
1.372681 52.377 -153.8475
1.382628 52.453 -154.3085
1.392647 52.528 -154.7654
1.402739 52.604 -155.2178
1.412904 52.680 -155.6653
1.423142 52.756 -156.1078
1.433455 52.833 -156.5451
1.443843 52.910 -156.9770
1.454305 52.987 -157.4038
1.464844 53.064 -157.8255
1.475459 53.142 -158.2428
1.486150 53.220 -158.6561
1.496920 53.297 -159.0658
1.507767 53.375 -159.4723
1.518693 53.453 -159.8759
1.529698 53.531 -160.2768
1.540783 53.609 -160.6752
1.551948 53.687 -161.0712
1.563194 53.766 -161.4649
1.574521 53.844 -161.8564
1.585931 53.922 -162.2457
1.597423 54.001 -162.6329
1.608999 54.080 -163.0181
1.620658 54.158 -163.4013
1.632402 54.238 -163.7826
1.644232 54.317 -164.1619
1.656146 54.397 -164.5393
1.668147 54.477 -164.9149
1.680235 54.557 -165.2886
1.692411 54.637 -165.6604
1.704675 54.718 -166.0304
1.717028 54.800 -166.3985
1.729470 54.882 -166.7647
1.742003 54.964 -167.1291
1.754626 55.047 -167.4915
1.767341 55.130 -167.8519
1.780147 55.215 -168.2103
1.793047 55.299 -168.5665
1.806040 55.384 -168.9203
1.819128 55.470 -169.2718
1.832310 55.556 -169.6205
1.845587 55.643 -169.9663
1.858961 55.730 -170.3091
1.872432 55.818 -170.6487
1.886001 55.906 -170.9854
1.899667 55.994 -171.3191
1.913433 56.083 -171.6500
1.927299 56.172 -171.9783
1.941265 56.262 -172.3042
1.955332 56.352 -172.6280
1.969501 56.442 -172.9498
1.983773 56.533 -173.2698
1.998148 56.624 -173.5882
2.012627 56.716 -173.9053
2.027212 56.809 -174.2212
2.041902 56.902 -174.5361
2.056698 56.996 -174.8502
2.071602 57.090 -175.1635
2.086614 57.185 -175.4764
2.101734 57.281 -175.7887
2.116964 57.378 -176.1007
2.132304 57.476 -176.4123
2.147756 57.574 -176.7235
2.163320 57.673 -177.0339
2.178996 57.774 -177.3432
2.194786 57.875 -177.6507
2.210690 57.977 -177.9560
2.226710 58.080 -178.2582
2.242845 58.184 -178.5572
2.259098 58.288 -178.8528
2.275468 58.394 -179.1453
2.291957 58.500 -179.4351
2.308566 58.607 -179.7226
2.325295 58.715 179.9913
2.342145 58.824 179.7062
2.359117 58.934 179.4213
2.376212 59.044 179.1359
2.393431 59.156 178.8493
2.410775 59.268 178.5609
2.428244 59.380 178.2700
2.445840 59.494 177.9760
2.463564 59.608 177.6784
2.481416 59.723 177.3767
2.499397 59.839 177.0706
2.517509 59.956 176.7600
2.535752 60.073 176.4453
2.554127 60.192 176.1269
2.572635 60.311 175.8058
2.591277 60.431 175.4830
2.610055 60.552 175.1594
2.628968 60.674 174.8353
2.648019 60.796 174.5107
2.667208 60.920 174.1854
2.686535 61.045 173.8588
2.706003 61.170 173.5302
2.725612 61.296 173.1988
2.745363 61.423 172.8639
2.765257 61.550 172.5245
2.785295 61.678 172.1799
2.805478 61.806 171.8292
2.825808 61.934 171.4717
2.846285 62.063 171.1068
2.866910 62.192 170.7339
2.887685 62.322 170.3528
2.908611 62.451 169.9637
2.929688 62.581 169.5669
2.950917 62.711 169.1631
2.972301 62.842 168.7534
2.993839 62.973 168.3381
3.015534 63.104 167.9180
3.037386 63.235 167.4933
3.059396 63.367 167.0638
3.081565 63.499 166.6296
3.103896 63.631 166.1904
3.126388 63.764 165.7460
3.149043 63.896 165.2959
3.171862 64.027 164.8398
3.194847 64.159 164.3773
3.217998 64.290 163.9080
3.241317 64.421 163.4315
3.264805 64.551 162.9475
3.288463 64.681 162.4560
3.312293 64.811 161.9568
3.336295 64.940 161.4503
3.360471 65.068 160.9367
3.384822 65.196 160.4168
3.409350 65.324 159.8910
3.434056 65.451 159.3597
3.458940 65.577 158.8237
3.484005 65.703 158.2833
3.509252 65.828 157.7388
3.534681 65.952 157.1905
3.560295 66.075 156.6384
3.586094 66.198 156.0826
3.612081 66.319 155.5228
3.638255 66.440 154.9585
3.664620 66.559 154.3891
3.691175 66.677 153.8141
3.717923 66.794 153.2332
3.744864 66.910 152.6467
3.772001 67.024 152.0550
3.799335 67.138 151.4592
3.826866 67.250 150.8604
3.854597 67.361 150.2596
3.882529 67.471 149.6581
3.910664 67.579 149.0569
3.939002 67.686 148.4565
3.967546 67.792 147.8576
3.996296 67.897 147.2598
4.025255 68.000 146.6628
4.054423 68.101 146.0656
4.083804 68.201 145.4676
4.113396 68.300 144.8683
4.143204 68.397 144.2682
4.173227 68.492 143.6681
4.203468 68.586 143.0690
4.233928 68.679 142.4722
4.264609 68.770 141.8788
4.295512 68.860 141.2896
4.326639 68.949 140.7052
4.357992 69.036 140.1254
4.389572 69.122 139.5500
4.421380 69.207 138.9791
4.453419 69.290 138.4137
4.485691 69.372 137.8554
4.518196 69.453 137.3058
4.550936 69.532 136.7659
4.583914 69.610 136.2361
4.617131 69.687 135.7167
4.650589 69.763 135.2075
4.684289 69.839 134.7082
4.718233 69.914 134.2183
4.752424 69.988 133.7377
4.786862 70.062 133.2660
4.821549 70.135 132.8033
4.856488 70.207 132.3494
4.891680 70.279 131.9042
4.927127 70.350 131.4680
4.962831 70.421 131.0408
4.998794 70.492 130.6229
5.035017 70.564 130.2145
5.071503 70.635 129.8162
5.108253 70.707 129.4280
5.145270 70.780 129.0503
5.182555 70.853 128.6830
5.220110 70.927 128.3257
5.257937 71.001 127.9775
5.296038 71.075 127.6374
5.334415 71.151 127.3042
5.373071 71.227 126.9769
5.412006 71.305 126.6545
5.451224 71.384 126.3364
5.490725 71.464 126.0224
5.530514 71.545 125.7123
5.570590 71.627 125.4060
5.610957 71.711 125.1028
5.651616 71.796 124.8016
5.692570 71.882 124.5010
5.733821 71.969 124.1993
5.775370 72.057 123.8951
5.817221 72.147 123.5872
5.859375 72.237 123.2749
5.901834 72.328 122.9579
5.944602 72.420 122.6363
5.987679 72.513 122.3098
6.031068 72.607 121.9777
6.074771 72.701 121.6393
6.118792 72.796 121.2938
6.163131 72.891 120.9402
6.207792 72.985 120.5780
6.252776 73.080 120.2068
6.298086 73.174 119.8267
6.343725 73.268 119.4381
6.389694 73.361 119.0414
6.435996 73.454 118.6370
6.482634 73.546 118.2256
6.529610 73.637 117.8072
6.576926 73.727 117.3820
6.624585 73.816 116.9501
6.672590 73.903 116.5119
6.720942 73.989 116.0680
6.769645 74.073 115.6194
6.818700 74.156 115.1676
6.868111 74.238 114.7137
6.917881 74.317 114.2587
6.968010 74.396 113.8033
7.018504 74.472 113.3477
7.069362 74.547 112.8927
7.120590 74.620 112.4388
7.172189 74.691 111.9873
7.224161 74.762 111.5394
7.276511 74.830 111.0961
7.329239 74.898 110.6582
7.382350 74.965 110.2262
7.435845 75.030 109.8001
7.489729 75.095 109.3800
7.544002 75.158 108.9662
7.598669 75.222 108.5588
7.653732 75.285 108.1582
7.709194 75.347 107.7644
7.765058 75.410 107.3772
7.821327 75.473 106.9961
7.878004 75.536 106.6202
7.935091 75.599 106.2487
7.992592 75.663 105.8804
8.050510 75.727 105.5147
8.108847 75.792 105.1509
8.167607 75.858 104.7880
8.226793 75.924 104.4250
8.286408 75.991 104.0604
8.346454 76.059 103.6930
8.406936 76.127 103.3213
8.467856 76.195 102.9446
8.529218 76.264 102.5621
8.591024 76.333 102.1733
8.653278 76.402 101.7774
8.715983 76.471 101.3738
8.779143 76.540 100.9621
8.842760 76.608 100.5418
8.906839 76.675 100.1133
8.971381 76.742 99.6769
9.036392 76.807 99.2334
9.101873 76.871 98.7834
9.167829 76.934 98.3278
9.234263 76.995 97.8673
9.301178 77.054 97.4030
9.368578 77.111 96.9365
9.436467 77.167 96.4695
9.504847 77.220 96.0036
9.573723 77.272 95.5402
9.643099 77.323 95.0805
9.712976 77.371 94.6260
9.783361 77.418 94.1783
9.854255 77.464 93.7388
9.925663 77.509 93.3087
9.997588 77.553 92.8886
10.070035 77.596 92.4792
10.143007 77.639 92.0806
10.216507 77.683 91.6930
10.290540 77.727 91.3162
10.365109 77.771 90.9498
10.440219 77.817 90.5925
10.515873 77.864 90.2430
10.592076 77.912 89.8997
10.668830 77.962 89.5609
10.746141 78.014 89.2249
10.824012 78.067 88.8895
10.902447 78.122 88.5524
10.981451 78.179 88.2114
11.061027 78.238 87.8647
11.141180 78.298 87.5105
11.221913 78.359 87.1475
11.303232 78.421 86.7743
11.385140 78.483 86.3900
11.467641 78.545 85.9944
11.550741 78.607 85.5877
11.634442 78.668 85.1705
11.718750 78.728 84.7438
11.803669 78.787 84.3091
11.889203 78.844 83.8681
11.975357 78.900 83.4233
12.062136 78.953 82.9773
12.149543 79.005 82.5327
12.237583 79.054 82.0919
12.326262 79.102 81.6578
12.415583 79.148 81.2330
12.505552 79.192 80.8197
12.596172 79.236 80.4198
12.687449 79.279 80.0345
12.779387 79.322 79.6644
12.871992 79.366 79.3098
12.965268 79.411 78.9700
13.059220 79.457 78.6433
13.153852 79.505 78.3276
13.249170 79.555 78.0200
13.345179 79.608 77.7175
13.441884 79.663 77.4161
13.539289 79.721 77.1119
13.637401 79.781 76.8012
13.736223 79.843 76.4807
13.835761 79.906 76.1472
13.936021 79.970 75.7984
14.037007 80.034 75.4330
14.138725 80.098 75.0509
14.241180 80.160 74.6528
14.344377 80.220 74.2407
14.448323 80.277 73.8174
14.553021 80.331 73.3870
14.658478 80.381 72.9542
14.764700 80.427 72.5241
14.871691 80.470 72.1021
14.979457 80.509 71.6936
15.088005 80.546 71.3035
15.197339 80.580 70.9357
15.307465 80.613 70.5930
15.418389 80.645 70.2768
15.530117 80.679 69.9870
15.642655 80.714 69.7213
15.756008 80.751 69.4759
15.870182 80.793 69.2456
15.985184 80.838 69.0237
16.101019 80.887 68.8030
16.217694 80.940 68.5761
16.335214 80.997 68.3364
16.453586 81.056 68.0782
16.572815 81.117 67.7974
16.692909 81.178 67.4922
16.813872 81.239 67.1631
16.935713 81.298 66.8123
17.058436 81.354 66.4442
17.182048 81.408 66.0645
17.306556 81.458 65.6796
17.431967 81.506 65.2957
17.558286 81.552 64.9182
17.685521 81.597 64.5505
17.813677 81.642 64.1935
17.942762 81.689 63.8451
18.072783 81.738 63.4999
18.203746 81.792 63.1494
18.335658 81.850 62.7828
18.468526 81.912 62.3879
18.602356 81.977 61.9527
18.737156 82.044 61.4667
18.872934 82.110 60.9227
19.009695 82.173 60.3177
19.147447 82.229 59.6542
19.286197 82.277 58.9401
19.425953 82.312 58.1894
19.566721 82.333 57.4205
19.708510 82.339 56.6565
19.851326 82.330 55.9228
19.995177 82.307 55.2452
20.140070 82.273 54.6485
20.286013 82.231 54.1531
20.433014 82.185 53.7727
20.581080 82.142 53.5120
20.730219 82.107 53.3645
20.880439 82.086 53.3118
21.031747 82.082 53.3254
21.184152 82.098 53.3687
21.337661 82.133 53.4016
21.492282 82.187 53.3868
21.648024 82.254 53.2935
21.804895 82.329 53.1017
21.962902 82.406 52.8046
22.122054 82.480 52.4075
22.282360 82.546 51.9271
22.443827 82.600 51.3881
22.606464 82.641 50.8198
22.770280 82.669 50.2527
22.935283 82.684 49.7144
23.101481 82.691 49.2267
23.268884 82.693 48.8032
23.437500 82.694 48.4476
23.607338 82.698 48.1537
23.778406 82.709 47.9067
23.950714 82.728 47.6862
24.124271 82.755 47.4703
24.299086 82.790 47.2386
24.475167 82.828 46.9770
24.652524 82.869 46.6781
24.831166 82.908 46.3428
25.011103 82.943 45.9789
25.192344 82.974 45.5982
25.374898 82.999 45.2148
25.558775 83.020 44.8413
25.743984 83.038 44.4865
25.930536 83.054 44.1541
26.118439 83.072 43.8423
26.307704 83.091 43.5443
26.498341 83.113 43.2504
26.690359 83.138 42.9504
26.883768 83.165 42.6357
27.078579 83.191 42.3018
27.274801 83.217 41.9483
27.472446 83.239 41.5796
27.671522 83.258 41.2031
27.872042 83.273 40.8278
28.074014 83.286 40.4621
28.277450 83.296 40.1123
28.482360 83.305 39.7813
28.688755 83.315 39.4680
28.896645 83.327 39.1685
29.106042 83.341 38.8763
29.316957 83.358 38.5848
29.529400 83.376 38.2878
29.743382 83.397 37.9816
29.958915 83.417 37.6644
30.176009 83.438 37.3370
30.394677 83.458 37.0016
30.614929 83.478 36.6611
30.836778 83.497 36.3181
31.060234 83.515 35.9741
31.285309 83.533 35.6295
31.512015 83.551 35.2837
31.740364 83.569 34.9357
31.970368 83.586 34.5849
32.202039 83.603 34.2315
32.435388 83.618 33.8770
32.670428 83.632 33.5243
32.907171 83.644 33.1771
33.145630 83.654 32.8392
33.385817 83.664 32.5137
33.627745 83.674 32.2020
33.871425 83.684 31.9037
34.116871 83.695 31.6160
34.364096 83.708 31.3345
34.613113 83.723 31.0537
34.863934 83.739 30.7681
35.116572 83.757 30.4734
35.371041 83.774 30.1671
35.627354 83.790 29.8492
35.885525 83.805 29.5224
36.145566 83.818 29.1915
36.407492 83.828 28.8623
36.671316 83.836 28.5406
36.937051 83.843 28.2308
37.204712 83.849 27.9349
37.474313 83.856 27.6520
37.745867 83.864 27.3782
38.019389 83.874 27.1079
38.294893 83.885 26.8351
38.572394 83.897 26.5550
38.851905 83.910 26.2650
39.133442 83.922 25.9651
39.417019 83.934 25.6578
39.702651 83.944 25.3468
39.990353 83.952 25.0354
40.280140 83.960 24.7263
40.572026 83.967 24.4204
40.866028 83.973 24.1176
41.162160 83.979 23.8165
41.460438 83.986 23.5162
41.760877 83.991 23.2156
42.063494 83.997 22.9144
42.368303 84.002 22.6125
42.675322 84.006 22.3110
42.984565 84.010 22.0114
43.296048 84.012 21.7159
43.609789 84.014 21.4271
43.925804 84.016 21.1475
44.244108 84.018 20.8779
44.564719 84.021 20.6170
44.887654 84.026 20.3608
45.212928 84.032 20.1038
45.540560 84.041 19.8397
45.870565 84.050 19.5638
46.202962 84.059 19.2749
46.537768 84.066 18.9751
46.875000 84.071 18.6699
47.214676 84.074 18.3669
47.556813 84.074 18.0735
47.901429 84.073 17.7943
48.248542 84.071 17.5306
48.598171 84.071 17.2793
48.950334 84.071 17.0350
49.305048 84.073 16.7913
49.662333 84.075 16.5428
50.022206 84.078 16.2872
50.384688 84.080 16.0243
50.749796 84.082 15.7551
51.117550 84.083 15.4813
51.487969 84.083 15.2032
51.861072 84.083 14.9205
52.236879 84.081 14.6330
52.615409 84.079 14.3416
52.996681 84.076 14.0488
53.380717 84.072 13.7581
53.767536 84.067 13.4726
54.157158 84.062 13.1932
54.549603 84.058 12.9185
54.944892 84.055 12.6449
55.343045 84.053 12.3693
55.744084 84.051 12.0901
56.148028 84.049 11.8089
56.554900 84.046 11.5287
56.964720 84.043 11.2529
57.377510 84.039 10.9833
57.793291 84.034 10.7203
58.212085 84.030 10.4630
58.633914 84.025 10.2102
59.058799 84.020 9.9605
59.486764 84.016 9.7120
59.917829 84.011 9.4625
60.352019 84.005 9.2101
60.789354 83.999 8.9543
61.229859 83.992 8.6963
61.673556 83.983 8.4379
62.120468 83.975 8.1798
62.570618 83.966 7.9207
63.024031 83.958 7.6576
63.480729 83.950 7.3883
63.940736 83.942 7.1130
64.404077 83.933 6.8336
64.870776 83.923 6.5526
65.340856 83.912 6.2711
65.814343 83.900 5.9905
66.291261 83.886 5.7150
66.771635 83.870 5.4529
67.255489 83.852 5.2135
67.742850 83.834 5.0022
68.233743 83.818 4.8159
68.728193 83.804 4.6447
69.226226 83.792 4.4774
69.727867 83.781 4.3065
70.233144 83.771 4.1294
70.742083 83.761 3.9459
71.254709 83.751 3.7552
71.771050 83.741 3.5553
72.291132 83.730 3.3448
72.814984 83.718 3.1243
73.342631 83.705 2.8956
73.874102 83.692 2.6604
74.409424 83.679 2.4186
74.948626 83.665 2.1698
75.491734 83.651 1.9149
76.038779 83.636 1.6565
76.589787 83.620 1.3979
77.144788 83.603 1.1418
77.703811 83.586 0.8903
78.266885 83.567 0.6448
78.834039 83.548 0.4070
79.405303 83.528 0.1786
79.980706 83.507 -0.0389
80.560280 83.486 -0.2443
81.144053 83.464 -0.4368
81.732056 83.442 -0.6176
82.324320 83.422 -0.7894
82.920876 83.402 -0.9572
83.521755 83.384 -1.1263
84.126988 83.367 -1.3024
84.736607 83.350 -1.4888
85.350643 83.333 -1.6869
85.969129 83.315 -1.8953
86.592097 83.295 -2.1103
87.219579 83.274 -2.3282
87.851608 83.251 -2.5459
88.488217 83.226 -2.7598
89.129439 83.199 -2.9664
89.775308 83.172 -3.1642
90.425856 83.144 -3.3544
91.081119 83.116 -3.5402
91.741131 83.087 -3.7236
92.405925 83.059 -3.9050
93.075536 83.030 -4.0837
93.750000 83.002 -4.2600
94.429351 82.975 -4.4358
95.113625 82.949 -4.6136
95.802858 82.923 -4.7958
96.497085 82.898 -4.9822
97.196342 82.872 -5.1699
97.900667 82.845 -5.3544
98.610096 82.818 -5.5328
