* Measurement data measured by REW V5.31.3
* Source: Headset (CX31993 HIFI AUDIO), MICROPHONE (Master Volume), R, volume: 0.250
* Format: 256k Log Swept Sine, 1 sweep at -12.0 dBFS with no timing reference
* Dated: 12 31, 24 12:57:58 PM
* REW Settings:
*  C-weighting compensation: Off
*  Target level: 75.0 dB
* Note: ; 
* Measurement: Sony LB CB -10 L
* Smoothing: 1/12 octave
* Frequency Step: 96 ppo
* Start Frequency: 0.36621094 Hz
*
* Freq(Hz) SPL(dB) Phase(degrees)
0.366211 37.773 -128.7055
0.368865 37.794 -128.7025
0.371538 37.825 -128.6977
0.374230 37.863 -128.6912
0.376942 37.906 -128.6830
0.379673 37.952 -128.6730
0.382424 38.000 -128.6614
0.385196 38.049 -128.6481
0.387987 38.099 -128.6332
0.390798 38.150 -128.6167
0.393630 38.201 -128.5987
0.396483 38.252 -128.5791
0.399356 38.304 -128.5581
0.402250 38.357 -128.5356
0.405165 38.409 -128.5117
0.408101 38.462 -128.4865
0.411058 38.516 -128.4599
0.414037 38.570 -128.4321
0.417037 38.624 -128.4030
0.420059 38.679 -128.3728
0.423103 38.734 -128.3414
0.426169 38.789 -128.3090
0.429257 38.845 -128.2756
0.432368 38.901 -128.2412
0.435501 38.958 -128.2059
0.438656 39.015 -128.1697
0.441835 39.072 -128.1328
0.445037 39.130 -128.0952
0.448262 39.189 -128.0569
0.451510 39.247 -128.0180
0.454782 39.307 -127.9786
0.458077 39.366 -127.9387
0.461397 39.426 -127.8984
0.464740 39.487 -127.8579
0.468108 39.548 -127.8170
0.471500 39.609 -127.7761
0.474917 39.671 -127.7350
0.478358 39.733 -127.6939
0.481825 39.796 -127.6529
0.485316 39.859 -127.6120
0.488833 39.922 -127.5713
0.492375 39.986 -127.5310
0.495943 40.051 -127.4910
0.499537 40.116 -127.4515
0.503157 40.181 -127.4125
0.506803 40.247 -127.3742
0.510475 40.314 -127.3366
0.514175 40.381 -127.2998
0.517900 40.448 -127.2639
0.521653 40.516 -127.2290
0.525434 40.584 -127.1951
0.529241 40.653 -127.1624
0.533076 40.722 -127.1310
0.536939 40.792 -127.1009
0.540830 40.863 -127.0723
0.544749 40.934 -127.0451
0.548696 41.005 -127.0196
0.552673 41.077 -126.9958
0.556677 41.149 -126.9738
0.560711 41.222 -126.9537
0.564774 41.296 -126.9356
0.568867 41.370 -126.9196
0.572989 41.444 -126.9058
0.577141 41.520 -126.8942
0.581324 41.595 -126.8850
0.585536 41.671 -126.8783
0.589779 41.748 -126.8742
0.594053 41.825 -126.8728
0.598358 41.903 -126.8741
0.602694 41.982 -126.8782
0.607061 42.061 -126.8854
0.611460 42.140 -126.8956
0.615891 42.220 -126.9089
0.620354 42.301 -126.9255
0.624849 42.382 -126.9455
0.629377 42.464 -126.9690
0.633938 42.547 -126.9960
0.638532 42.630 -127.0266
0.643159 42.714 -127.0611
0.647819 42.798 -127.0994
0.652514 42.883 -127.1416
0.657242 42.968 -127.1880
0.662005 43.055 -127.2385
0.666802 43.141 -127.2933
0.671634 43.229 -127.3525
0.676501 43.317 -127.4162
0.681403 43.406 -127.4845
0.686341 43.495 -127.5575
0.691314 43.585 -127.6352
0.696324 43.675 -127.7179
0.701370 43.766 -127.8054
0.706452 43.858 -127.8979
0.711571 43.950 -127.9954
0.716728 44.041 -128.0976
0.721921 44.133 -128.2043
0.727153 44.224 -128.3150
0.732422 44.314 -128.4289
0.737729 44.403 -128.5453
0.743075 44.490 -128.6633
0.748460 44.577 -128.7823
0.753883 44.663 -128.9017
0.759346 44.750 -129.0212
0.764849 44.836 -129.1409
0.770391 44.922 -129.2605
0.775974 45.008 -129.3802
0.781597 45.094 -129.5001
0.787261 45.181 -129.6202
0.792966 45.268 -129.7406
0.798712 45.355 -129.8615
0.804500 45.442 -129.9830
0.810329 45.529 -130.1052
0.816201 45.617 -130.2282
0.822116 45.704 -130.3522
0.828073 45.792 -130.4773
0.834074 45.881 -130.6036
0.840118 45.969 -130.7312
0.846206 46.057 -130.8604
0.852338 46.146 -130.9911
0.858514 46.235 -131.1236
0.864735 46.324 -131.2581
0.871001 46.414 -131.3945
0.877313 46.504 -131.5332
0.883670 46.593 -131.6741
0.890074 46.684 -131.8176
0.896524 46.774 -131.9636
0.903020 46.865 -132.1124
0.909564 46.955 -132.2641
0.916155 47.046 -132.4189
0.922794 47.138 -132.5768
0.929481 47.229 -132.7381
0.936216 47.321 -132.9029
0.943000 47.413 -133.0714
0.949834 47.506 -133.2437
0.956717 47.598 -133.4200
0.963649 47.691 -133.6004
0.970632 47.785 -133.7851
0.977666 47.878 -133.9743
0.984750 47.972 -134.1682
0.991886 48.066 -134.3668
0.999074 48.161 -134.5704
1.006314 48.256 -134.7792
1.013606 48.351 -134.9933
1.020951 48.446 -135.2129
1.028349 48.542 -135.4383
1.035801 48.639 -135.6694
1.043307 48.735 -135.9067
1.050867 48.832 -136.1501
1.058482 48.930 -136.3998
1.066152 49.027 -136.6560
1.073878 49.126 -136.9186
1.081660 49.224 -137.1876
1.089498 49.323 -137.4626
1.097393 49.423 -137.7433
1.105345 49.522 -138.0291
1.113355 49.622 -138.3192
1.121423 49.722 -138.6133
1.129549 49.823 -138.9107
1.137734 49.923 -139.2112
1.145979 50.024 -139.5146
1.154283 50.125 -139.8208
1.162647 50.226 -140.1295
1.171072 50.327 -140.4409
1.179558 50.428 -140.7549
1.188106 50.529 -141.0713
1.196715 50.631 -141.3903
1.205387 50.733 -141.7119
1.214122 50.834 -142.0359
1.222920 50.937 -142.3625
1.231782 51.039 -142.6916
1.240708 51.141 -143.0232
1.249699 51.244 -143.3575
1.258754 51.346 -143.6943
1.267876 51.449 -144.0337
1.277063 51.552 -144.3759
1.286318 51.655 -144.7207
1.295639 51.759 -145.0683
1.305027 51.862 -145.4187
1.314484 51.966 -145.7719
1.324009 52.070 -146.1281
1.333604 52.174 -146.4873
1.343268 52.278 -146.8496
1.353002 52.383 -147.2150
1.362806 52.487 -147.5837
1.372681 52.592 -147.9557
1.382628 52.697 -148.3311
1.392647 52.803 -148.7101
1.402739 52.908 -149.0926
1.412904 53.014 -149.4789
1.423142 53.120 -149.8689
1.433455 53.226 -150.2626
1.443843 53.333 -150.6601
1.454305 53.439 -151.0611
1.464844 53.546 -151.4655
1.475459 53.653 -151.8729
1.486150 53.760 -152.2830
1.496920 53.867 -152.6955
1.507767 53.974 -153.1101
1.518693 54.081 -153.5268
1.529698 54.188 -153.9454
1.540783 54.295 -154.3659
1.551948 54.402 -154.7884
1.563194 54.509 -155.2128
1.574521 54.616 -155.6393
1.585931 54.724 -156.0679
1.597423 54.831 -156.4987
1.608999 54.938 -156.9318
1.620658 55.045 -157.3673
1.632402 55.152 -157.8053
1.644232 55.259 -158.2460
1.656146 55.366 -158.6894
1.668147 55.473 -159.1358
1.680235 55.580 -159.5854
1.692411 55.687 -160.0382
1.704675 55.794 -160.4945
1.717028 55.902 -160.9544
1.729470 56.009 -161.4183
1.742003 56.116 -161.8862
1.754626 56.223 -162.3584
1.767341 56.331 -162.8353
1.780147 56.438 -163.3169
1.793047 56.545 -163.8035
1.806040 56.653 -164.2954
1.819128 56.760 -164.7928
1.832310 56.867 -165.2957
1.845587 56.975 -165.8042
1.858961 57.082 -166.3181
1.872432 57.189 -166.8373
1.886001 57.295 -167.3614
1.899667 57.402 -167.8901
1.913433 57.508 -168.4230
1.927299 57.614 -168.9598
1.941265 57.720 -169.5001
1.955332 57.826 -170.0436
1.969501 57.931 -170.5898
1.983773 58.037 -171.1385
1.998148 58.142 -171.6895
2.012627 58.246 -172.2424
2.027212 58.351 -172.7970
2.041902 58.456 -173.3531
2.056698 58.560 -173.9105
2.071602 58.664 -174.4691
2.086614 58.768 -175.0286
2.101734 58.872 -175.5891
2.116964 58.976 -176.1505
2.132304 59.079 -176.7128
2.147756 59.183 -177.2762
2.163320 59.286 -177.8410
2.178996 59.389 -178.4075
2.194786 59.492 -178.9762
2.210690 59.594 -179.5478
2.226710 59.696 179.8773
2.242845 59.798 179.2986
2.259098 59.900 178.7162
2.275468 60.001 178.1303
2.291957 60.101 177.5412
2.308566 60.202 176.9493
2.325295 60.301 176.3550
2.342145 60.401 175.7590
2.359117 60.500 175.1616
2.376212 60.598 174.5633
2.393431 60.697 173.9647
2.410775 60.795 173.3661
2.428244 60.892 172.7679
2.445840 60.990 172.1707
2.463564 61.087 171.5747
2.481416 61.184 170.9801
2.499397 61.280 170.3870
2.517509 61.377 169.7954
2.535752 61.473 169.2051
2.554127 61.568 168.6155
2.572635 61.664 168.0260
2.591277 61.759 167.4357
2.610055 61.853 166.8440
2.628968 61.947 166.2507
2.648019 62.041 165.6556
2.667208 62.134 165.0592
2.686535 62.226 164.4616
2.706003 62.318 163.8635
2.725612 62.409 163.2653
2.745363 62.500 162.6677
2.765257 62.591 162.0711
2.785295 62.681 161.4762
2.805478 62.771 160.8836
2.825808 62.861 160.2937
2.846285 62.951 159.7070
2.866910 63.040 159.1237
2.887685 63.130 158.5441
2.908611 63.219 157.9677
2.929688 63.307 157.3944
2.950917 63.396 156.8234
2.972301 63.484 156.2541
2.993839 63.572 155.6860
3.015534 63.659 155.1190
3.037386 63.746 154.5529
3.059396 63.832 153.9880
3.081565 63.918 153.4246
3.103896 64.004 152.8631
3.126388 64.089 152.3039
3.149043 64.175 151.7475
3.171862 64.260 151.1944
3.194847 64.345 150.6451
3.217998 64.431 150.0999
3.241317 64.516 149.5591
3.264805 64.602 149.0230
3.288463 64.687 148.4916
3.312293 64.773 147.9646
3.336295 64.858 147.4418
3.360471 64.944 146.9227
3.384822 65.029 146.4071
3.409350 65.115 145.8947
3.434056 65.200 145.3852
3.458940 65.285 144.8786
3.484005 65.371 144.3748
3.509252 65.456 143.8737
3.534681 65.542 143.3753
3.560295 65.628 142.8796
3.586094 65.715 142.3868
3.612081 65.802 141.8969
3.638255 65.889 141.4100
3.664620 65.977 140.9264
3.691175 66.065 140.4462
3.717923 66.154 139.9693
3.744864 66.243 139.4956
3.772001 66.332 139.0248
3.799335 66.422 138.5564
3.826866 66.512 138.0900
3.854597 66.603 137.6249
3.882529 66.694 137.1608
3.910664 66.786 136.6970
3.939002 66.878 136.2332
3.967546 66.970 135.7692
3.996296 67.064 135.3049
4.025255 67.158 134.8403
4.054423 67.252 134.3758
4.083804 67.347 133.9115
4.113396 67.443 133.4474
4.143204 67.539 132.9834
4.173227 67.635 132.5190
4.203468 67.733 132.0536
4.233928 67.830 131.5867
4.264609 67.928 131.1174
4.295512 68.026 130.6451
4.326639 68.125 130.1693
4.357992 68.223 129.6896
4.389572 68.322 129.2059
4.421380 68.422 128.7183
4.453419 68.521 128.2269
4.485691 68.621 127.7319
4.518196 68.721 127.2335
4.550936 68.822 126.7315
4.583914 68.922 126.2259
4.617131 69.022 125.7162
4.650589 69.122 125.2024
4.684289 69.222 124.6838
4.718233 69.321 124.1602
4.752424 69.420 123.6313
4.786862 69.519 123.0969
4.821549 69.617 122.5571
4.856488 69.715 122.0121
4.891680 69.812 121.4622
4.927127 69.909 120.9079
4.962831 70.006 120.3497
4.998794 70.101 119.7878
5.035017 70.196 119.2227
5.071503 70.289 118.6541
5.108253 70.382 118.0821
5.145270 70.474 117.5064
5.182555 70.565 116.9267
5.220110 70.654 116.3432
5.257937 70.743 115.7563
5.296038 70.830 115.1668
5.334415 70.916 114.5756
5.373071 71.001 113.9836
5.412006 71.085 113.3914
5.451224 71.167 112.7996
5.490725 71.248 112.2081
5.530514 71.328 111.6168
5.570590 71.406 111.0254
5.610957 71.483 110.4343
5.651616 71.559 109.8439
5.692570 71.633 109.2552
5.733821 71.706 108.6692
5.775370 71.778 108.0867
5.817221 71.848 107.5087
5.859375 71.917 106.9352
5.901834 71.985 106.3662
5.944602 72.052 105.8017
5.987679 72.118 105.2417
6.031068 72.182 104.6864
6.074771 72.245 104.1364
6.118792 72.308 103.5924
6.163131 72.370 103.0550
6.207792 72.431 102.5244
6.252776 72.491 102.0010
6.298086 72.550 101.4846
6.343725 72.609 100.9750
6.389694 72.668 100.4720
6.435996 72.726 99.9753
6.482634 72.784 99.4849
6.529610 72.841 99.0009
6.576926 72.899 98.5231
6.624585 72.956 98.0515
6.672590 73.014 97.5859
6.720942 73.071 97.1259
6.769645 73.129 96.6708
6.818700 73.187 96.2198
6.868111 73.245 95.7724
6.917881 73.303 95.3278
6.968010 73.362 94.8857
7.018504 73.421 94.4458
7.069362 73.480 94.0076
7.120590 73.539 93.5706
7.172189 73.599 93.1339
7.224161 73.660 92.6967
7.276511 73.720 92.2582
7.329239 73.781 91.8180
7.382350 73.841 91.3755
7.435845 73.902 90.9307
7.489729 73.963 90.4830
7.544002 74.024 90.0323
7.598669 74.084 89.5782
7.653732 74.145 89.1202
7.709194 74.205 88.6582
7.765058 74.264 88.1919
7.821327 74.323 87.7216
7.878004 74.382 87.2473
7.935091 74.439 86.7694
7.992592 74.496 86.2881
8.050510 74.552 85.8036
8.108847 74.608 85.3162
8.167607 74.662 84.8259
8.226793 74.715 84.3333
8.286408 74.767 83.8389
8.346454 74.819 83.3435
8.406936 74.869 82.8475
8.467856 74.918 82.3513
8.529218 74.966 81.8553
8.591024 75.013 81.3597
8.653278 75.059 80.8652
8.715983 75.105 80.3721
8.779143 75.149 79.8808
8.842760 75.193 79.3917
8.906839 75.236 78.9048
8.971381 75.279 78.4202
9.036392 75.321 77.9378
9.101873 75.362 77.4576
9.167829 75.404 76.9796
9.234263 75.445 76.5036
9.301178 75.486 76.0292
9.368578 75.526 75.5560
9.436467 75.567 75.0835
9.504847 75.608 74.6113
9.573723 75.648 74.1387
9.643099 75.689 73.6654
9.712976 75.730 73.1909
9.783361 75.771 72.7144
9.854255 75.811 72.2354
9.925663 75.852 71.7534
9.997588 75.893 71.2680
10.070035 75.933 70.7789
10.143007 75.973 70.2859
10.216507 76.013 69.7888
10.290540 76.052 69.2875
10.365109 76.090 68.7819
10.440219 76.128 68.2723
10.515873 76.166 67.7591
10.592076 76.202 67.2425
10.668830 76.237 66.7231
10.746141 76.271 66.2013
10.824012 76.305 65.6779
10.902447 76.337 65.1535
10.981451 76.368 64.6290
11.061027 76.398 64.1051
11.141180 76.427 63.5825
11.221913 76.455 63.0620
11.303232 76.482 62.5443
11.385140 76.508 62.0302
11.467641 76.533 61.5201
11.550741 76.558 61.0146
11.634442 76.582 60.5138
11.718750 76.606 60.0180
11.803669 76.629 59.5274
11.889203 76.652 59.0419
11.975357 76.675 58.5611
12.062136 76.699 58.0847
12.149543 76.722 57.6122
12.237583 76.746 57.1430
12.326262 76.770 56.6764
12.415583 76.794 56.2114
12.505552 76.818 55.7473
12.596172 76.843 55.2833
12.687449 76.869 54.8184
12.779387 76.894 54.3520
12.871992 76.919 53.8832
12.965268 76.945 53.4116
13.059220 76.970 52.9368
13.153852 76.995 52.4586
13.249170 77.019 51.9771
13.345179 77.042 51.4926
13.441884 77.065 51.0054
13.539289 77.086 50.5165
13.637401 77.106 50.0267
13.736223 77.125 49.5371
13.835761 77.142 49.0491
13.936021 77.158 48.5640
14.037007 77.173 48.0831
14.138725 77.187 47.6078
14.241180 77.199 47.1391
14.344377 77.210 46.6780
14.448323 77.221 46.2251
14.553021 77.232 45.7805
14.658478 77.242 45.3440
14.764700 77.253 44.9147
14.871691 77.264 44.4913
14.979457 77.276 44.0720
15.088005 77.288 43.6544
15.197339 77.302 43.2359
15.307465 77.317 42.8137
15.418389 77.332 42.3849
15.530117 77.348 41.9469
15.642655 77.364 41.4973
15.756008 77.380 41.0345
15.870182 77.395 40.5575
15.985184 77.408 40.0662
16.101019 77.419 39.5619
16.217694 77.427 39.0465
16.335214 77.431 38.5232
16.453586 77.432 37.9962
16.572815 77.428 37.4701
16.692909 77.421 36.9502
16.813872 77.409 36.4420
16.935713 77.394 35.9507
17.058436 77.376 35.4806
17.182048 77.357 35.0352
17.306556 77.336 34.6168
17.431967 77.315 34.2254
17.558286 77.295 33.8596
17.685521 77.278 33.5160
17.813677 77.264 33.1895
17.942762 77.253 32.8736
18.072783 77.246 32.5612
18.203746 77.243 32.2454
18.335658 77.242 31.9195
18.468526 77.244 31.5787
18.602356 77.247 31.2201
18.737156 77.250 30.8431
18.872934 77.252 30.4499
19.009695 77.251 30.0451
19.147447 77.247 29.6354
19.286197 77.241 29.2287
19.425953 77.231 28.8336
19.566721 77.219 28.4579
19.708510 77.205 28.1083
19.851326 77.192 27.7883
19.995177 77.181 27.4985
20.140070 77.174 27.2354
20.286013 77.172 26.9916
20.433014 77.176 26.7565
20.581080 77.187 26.5173
20.730219 77.205 26.2604
20.880439 77.228 25.9730
21.031747 77.255 25.6448
21.184152 77.282 25.2698
21.337661 77.308 24.8466
21.492282 77.331 24.3790
21.648024 77.346 23.8760
21.804895 77.354 23.3505
21.962902 77.352 22.8184
22.122054 77.341 22.2968
22.282360 77.322 21.8025
22.443827 77.295 21.3499
22.606464 77.263 20.9496
22.770280 77.228 20.6074
22.935283 77.194 20.3230
23.101481 77.162 20.0907
23.268884 77.135 19.8999
23.437500 77.113 19.7367
23.607338 77.097 19.5861
23.778406 77.086 19.4338
23.950714 77.079 19.2691
24.124271 77.074 19.0852
24.299086 77.068 18.8803
24.475167 77.061 18.6571
24.652524 77.052 18.4217
24.831166 77.038 18.1820
25.011103 77.021 17.9460
25.192344 77.002 17.7202
25.374898 76.981 17.5078
25.558775 76.959 17.3091
25.743984 76.938 17.1206
25.930536 76.918 16.9364
26.118439 76.899 16.7495
26.307704 76.880 16.5532
26.498341 76.862 16.3427
26.690359 76.843 16.1160
26.883768 76.821 15.8749
27.078579 76.796 15.6237
27.274801 76.767 15.3690
27.472446 76.734 15.1187
27.671522 76.698 14.8796
27.872042 76.660 14.6574
28.074014 76.620 14.4550
28.277450 76.581 14.2726
28.482360 76.542 14.1080
28.688755 76.506 13.9575
28.896645 76.471 13.8162
29.106042 76.439 13.6792
29.316957 76.409 13.5422
29.529400 76.381 13.4019
29.743382 76.355 13.2556
29.958915 76.330 13.1018
30.176009 76.305 12.9395
30.394677 76.281 12.7682
30.614929 76.257 12.5887
30.836778 76.232 12.4028
31.060234 76.206 12.2134
31.285309 76.178 12.0247
31.512015 76.147 11.8418
31.740364 76.115 11.6695
31.970368 76.082 11.5117
32.202039 76.048 11.3704
32.435388 76.014 11.2456
32.670428 75.980 11.1354
32.907171 75.947 11.0368
33.145630 75.914 10.9470
33.385817 75.882 10.8643
33.627745 75.849 10.7891
33.871425 75.816 10.7229
34.116871 75.782 10.6685
34.364096 75.749 10.6272
34.613113 75.715 10.5989
34.863934 75.684 10.5807
35.116572 75.653 10.5675
35.371041 75.625 10.5533
35.627354 75.597 10.5333
35.885525 75.570 10.5050
36.145566 75.541 10.4695
36.407492 75.511 10.4307
36.671316 75.479 10.3939
36.937051 75.446 10.3643
37.204712 75.412 10.3444
37.474313 75.378 10.3344
37.745867 75.345 10.3317
38.019389 75.312 10.3333
38.294893 75.279 10.3368
38.572394 75.246 10.3422
38.851905 75.212 10.3517
39.133442 75.178 10.3693
39.417019 75.143 10.3982
39.702651 75.108 10.4404
39.990353 75.074 10.4952
40.280140 75.040 10.5599
40.572026 75.008 10.6317
40.866028 74.977 10.7083
41.162160 74.945 10.7898
41.460438 74.914 10.8774
41.760877 74.884 10.9720
42.063494 74.853 11.0732
42.368303 74.824 11.1780
42.675322 74.795 11.2826
42.984565 74.766 11.3849
43.296048 74.736 11.4869
43.609789 74.704 11.5952
43.925804 74.670 11.7190
44.244108 74.637 11.8651
44.564719 74.605 12.0336
44.887654 74.577 12.2159
45.212928 74.553 12.3973
45.540560 74.533 12.5642
45.870565 74.514 12.7100
46.202962 74.494 12.8392
46.537768 74.472 12.9648
46.875000 74.448 13.1013
47.214676 74.425 13.2565
47.556813 74.404 13.4271
47.901429 74.388 13.6015
48.248542 74.374 13.7665
48.598171 74.361 13.9154
48.950334 74.348 14.0516
49.305048 74.333 14.1858
49.662333 74.316 14.3298
50.022206 74.298 14.4910
50.384688 74.281 14.6707
50.749796 74.266 14.8654
51.117550 74.251 15.0714
51.487969 74.238 15.2867
51.861072 74.226 15.5109
52.236879 74.215 15.7432
52.615409 74.205 15.9822
52.996681 74.197 16.2252
53.380717 74.190 16.4696
53.767536 74.183 16.7137
54.157158 74.177 16.9569
54.549603 74.171 17.1987
54.944892 74.165 17.4390
55.343045 74.159 17.6785
55.744084 74.152 17.9186
56.148028 74.145 18.1616
56.554900 74.138 18.4094
56.964720 74.132 18.6632
57.377510 74.127 18.9233
57.793291 74.123 19.1887
58.212085 74.121 19.4567
58.633914 74.122 19.7231
59.058799 74.125 19.9841
59.486764 74.129 20.2375
59.917829 74.134 20.4861
60.352019 74.139 20.7369
60.789354 74.144 20.9984
61.229859 74.149 21.2773
61.673556 74.156 21.5751
62.120468 74.166 21.8882
62.570618 74.178 22.2122
63.024031 74.192 22.5439
63.480729 74.206 22.8835
63.940736 74.222 23.2314
64.404077 74.239 23.5870
64.870776 74.256 23.9482
65.340856 74.275 24.3143
65.814343 74.295 24.6840
66.291261 74.318 25.0492
66.771635 74.346 25.3894
67.255489 74.376 25.6771
67.742850 74.405 25.8942
68.233743 74.428 26.0480
68.728193 74.442 26.1698
69.226226 74.449 26.2952
69.727867 74.451 26.4449
70.233144 74.453 26.6212
70.742083 74.456 26.8202
71.254709 74.461 27.0437
71.771050 74.470 27.2975
72.291132 74.485 27.5808
72.814984 74.507 27.8809
73.342631 74.537 28.1792
73.874102 74.572 28.4623
74.409424 74.611 28.7259
74.948626 74.650 28.9729
75.491734 74.688 29.2093
76.038779 74.725 29.4411
76.589787 74.760 29.6725
77.144788 74.794 29.9049
77.703811 74.827 30.1368
78.266885 74.860 30.3643
78.834039 74.893 30.5839
79.405303 74.925 30.7942
79.980706 74.957 30.9968
80.560280 74.988 31.1943
81.144053 75.019 31.3893
81.732056 75.050 31.5840
82.324320 75.083 31.7809
82.920876 75.117 31.9817
83.521755 75.153 32.1842
84.126988 75.193 32.3816
84.736607 75.235 32.5652
85.350643 75.278 32.7296
85.969129 75.322 32.8763
86.592097 75.365 33.0129
87.219579 75.406 33.1484
87.851608 75.448 33.2899
88.488217 75.490 33.4396
89.129439 75.532 33.5958
89.775308 75.576 33.7543
90.425856 75.619 33.9122
91.081119 75.662 34.0698
91.741131 75.703 34.2298
92.405925 75.743 34.3930
93.075536 75.783 34.5566
93.750000 75.822 34.7144
94.429351 75.863 34.8600
95.113625 75.904 34.9882
95.802858 75.945 35.0976
96.497085 75.988 35.1897
