* Measurement data measured by REW V5.31.3
* Source: Headset (CX31993 HIFI AUDIO), MICROPHONE (Master Volume), R, volume: 0.250
* Format: 256k Log Swept Sine, 1 sweep at -12.0 dBFS with no timing reference
* Dated: 12 31, 24 12:54:32 PM
* REW Settings:
*  C-weighting compensation: Off
*  Target level: 75.0 dB
* Note: ; 
* Measurement: Sony LB Fit Bright L
* Smoothing: 1/12 octave
* Frequency Step: 96 ppo
* Start Frequency: 0.36621094 Hz
*
* Freq(Hz) SPL(dB) Phase(degrees)
0.366211 39.433 -114.1411
0.368865 39.453 -114.1832
0.371538 39.482 -114.2457
0.374230 39.517 -114.3231
0.376942 39.558 -114.4108
0.379673 39.601 -114.5051
0.382424 39.646 -114.6040
0.385196 39.693 -114.7060
0.387987 39.740 -114.8103
0.390798 39.787 -114.9165
0.393630 39.835 -115.0243
0.396483 39.884 -115.1335
0.399356 39.933 -115.2441
0.402250 39.982 -115.3561
0.405165 40.031 -115.4693
0.408101 40.081 -115.5839
0.411058 40.132 -115.6998
0.414037 40.182 -115.8169
0.417037 40.233 -115.9353
0.420059 40.285 -116.0549
0.423103 40.337 -116.1758
0.426169 40.389 -116.2979
0.429257 40.441 -116.4212
0.432368 40.494 -116.5456
0.435501 40.548 -116.6713
0.438656 40.601 -116.7981
0.441835 40.655 -116.9261
0.445037 40.710 -117.0553
0.448262 40.765 -117.1855
0.451510 40.820 -117.3169
0.454782 40.876 -117.4494
0.458077 40.932 -117.5829
0.461397 40.988 -117.7176
0.464740 41.045 -117.8533
0.468108 41.102 -117.9901
0.471500 41.160 -118.1279
0.474917 41.218 -118.2667
0.478358 41.277 -118.4066
0.481825 41.336 -118.5475
0.485316 41.395 -118.6894
0.488833 41.455 -118.8323
0.492375 41.515 -118.9762
0.495943 41.576 -119.1210
0.499537 41.637 -119.2669
0.503157 41.699 -119.4137
0.506803 41.761 -119.5614
0.510475 41.823 -119.7102
0.514175 41.886 -119.8598
0.517900 41.950 -120.0105
0.521653 42.014 -120.1621
0.525434 42.078 -120.3146
0.529241 42.143 -120.4681
0.533076 42.208 -120.6226
0.536939 42.274 -120.7780
0.540830 42.340 -120.9343
0.544749 42.407 -121.0917
0.548696 42.474 -121.2500
0.552673 42.541 -121.4093
0.556677 42.610 -121.5695
0.560711 42.678 -121.7308
0.564774 42.747 -121.8931
0.568867 42.817 -122.0564
0.572989 42.887 -122.2207
0.577141 42.958 -122.3861
0.581324 43.029 -122.5525
0.585536 43.101 -122.7200
0.589779 43.173 -122.8887
0.594053 43.246 -123.0585
0.598358 43.319 -123.2294
0.602694 43.393 -123.4015
0.607061 43.467 -123.5748
0.611460 43.542 -123.7494
0.615891 43.617 -123.9252
0.620354 43.693 -124.1023
0.624849 43.770 -124.2807
0.629377 43.847 -124.4606
0.633938 43.925 -124.6418
0.638532 44.003 -124.8245
0.643159 44.082 -125.0087
0.647819 44.161 -125.1944
0.652514 44.241 -125.3817
0.657242 44.321 -125.5706
0.662005 44.402 -125.7613
0.666802 44.484 -125.9537
0.671634 44.566 -126.1479
0.676501 44.649 -126.3440
0.681403 44.733 -126.5420
0.686341 44.817 -126.7420
0.691314 44.901 -126.9441
0.696324 44.986 -127.1484
0.701370 45.072 -127.3548
0.706452 45.157 -127.5635
0.711571 45.243 -127.7745
0.716728 45.329 -127.9880
0.721921 45.413 -128.2038
0.727153 45.497 -128.4220
0.732422 45.578 -128.6425
0.737729 45.656 -128.8652
0.743075 45.733 -129.0900
0.748460 45.808 -129.3167
0.753883 45.881 -129.5452
0.759346 45.953 -129.7754
0.764849 46.025 -130.0073
0.770391 46.096 -130.2408
0.775974 46.167 -130.4757
0.781597 46.237 -130.7121
0.787261 46.308 -130.9499
0.792966 46.377 -131.1891
0.798712 46.447 -131.4295
0.804500 46.516 -131.6711
0.810329 46.586 -131.9140
0.816201 46.654 -132.1580
0.822116 46.723 -132.4032
0.828073 46.791 -132.6494
0.834074 46.860 -132.8966
0.840118 46.928 -133.1449
0.846206 46.995 -133.3941
0.852338 47.063 -133.6442
0.858514 47.130 -133.8952
0.864735 47.198 -134.1472
0.871001 47.265 -134.3999
0.877313 47.332 -134.6535
0.883670 47.398 -134.9079
0.890074 47.465 -135.1631
0.896524 47.532 -135.4191
0.903020 47.598 -135.6758
0.909564 47.664 -135.9332
0.916155 47.731 -136.1914
0.922794 47.797 -136.4503
0.929481 47.863 -136.7100
0.936216 47.929 -136.9704
0.943000 47.996 -137.2314
0.949834 48.062 -137.4933
0.956717 48.128 -137.7558
0.963649 48.195 -138.0191
0.970632 48.261 -138.2832
0.977666 48.328 -138.5480
0.984750 48.395 -138.8136
0.991886 48.462 -139.0801
0.999074 48.529 -139.3474
1.006314 48.596 -139.6155
1.013606 48.664 -139.8846
1.020951 48.732 -140.1546
1.028349 48.801 -140.4256
1.035801 48.870 -140.6976
1.043307 48.939 -140.9706
1.050867 49.009 -141.2449
1.058482 49.079 -141.5202
1.066152 49.150 -141.7969
1.073878 49.221 -142.0750
1.081660 49.293 -142.3546
1.089498 49.365 -142.6358
1.097393 49.438 -142.9189
1.105345 49.511 -143.2040
1.113355 49.584 -143.4913
1.121423 49.657 -143.7810
1.129549 49.731 -144.0731
1.137734 49.804 -144.3677
1.145979 49.877 -144.6646
1.154283 49.950 -144.9639
1.162647 50.024 -145.2656
1.171072 50.097 -145.5694
1.179558 50.170 -145.8754
1.188106 50.242 -146.1834
1.196715 50.315 -146.4933
1.205387 50.388 -146.8051
1.214122 50.461 -147.1186
1.222920 50.534 -147.4337
1.231782 50.607 -147.7502
1.240708 50.680 -148.0682
1.249699 50.753 -148.3874
1.258754 50.826 -148.7077
1.267876 50.899 -149.0290
1.277063 50.972 -149.3512
1.286318 51.046 -149.6741
1.295639 51.119 -149.9976
1.305027 51.193 -150.3215
1.314484 51.267 -150.6457
1.324009 51.341 -150.9700
1.333604 51.415 -151.2943
1.343268 51.490 -151.6184
1.353002 51.565 -151.9421
1.362806 51.640 -152.2653
1.372681 51.715 -152.5879
1.382628 51.791 -152.9096
1.392647 51.868 -153.2302
1.402739 51.944 -153.5497
1.412904 52.021 -153.8677
1.423142 52.099 -154.1843
1.433455 52.177 -154.4991
1.443843 52.256 -154.8122
1.454305 52.335 -155.1235
1.464844 52.414 -155.4328
1.475459 52.494 -155.7404
1.486150 52.574 -156.0463
1.496920 52.654 -156.3507
1.507767 52.734 -156.6536
1.518693 52.815 -156.9553
1.529698 52.896 -157.2558
1.540783 52.976 -157.5555
1.551948 53.057 -157.8543
1.563194 53.139 -158.1525
1.574521 53.220 -158.4501
1.585931 53.302 -158.7474
1.597423 53.383 -159.0444
1.608999 53.465 -159.3414
1.620658 53.548 -159.6384
1.632402 53.630 -159.9356
1.644232 53.713 -160.2330
1.656146 53.797 -160.5309
1.668147 53.880 -160.8294
1.680235 53.964 -161.1285
1.692411 54.049 -161.4284
1.704675 54.133 -161.7292
1.717028 54.219 -162.0311
1.729470 54.304 -162.3340
1.742003 54.391 -162.6382
1.754626 54.478 -162.9437
1.767341 54.565 -163.2505
1.780147 54.653 -163.5587
1.793047 54.742 -163.8681
1.806040 54.831 -164.1788
1.819128 54.921 -164.4903
1.832310 55.011 -164.8025
1.845587 55.102 -165.1148
1.858961 55.194 -165.4270
1.872432 55.286 -165.7387
1.886001 55.378 -166.0499
1.899667 55.471 -166.3607
1.913433 55.564 -166.6710
1.927299 55.658 -166.9810
1.941265 55.752 -167.2909
1.955332 55.847 -167.6009
1.969501 55.942 -167.9113
1.983773 56.038 -168.2222
1.998148 56.134 -168.5338
2.012627 56.231 -168.8463
2.027212 56.329 -169.1600
2.041902 56.426 -169.4751
2.056698 56.525 -169.7917
2.071602 56.624 -170.1101
2.086614 56.724 -170.4304
2.101734 56.824 -170.7528
2.116964 56.925 -171.0773
2.132304 57.027 -171.4041
2.147756 57.129 -171.7332
2.163320 57.232 -172.0643
2.178996 57.336 -172.3971
2.194786 57.441 -172.7311
2.210690 57.546 -173.0659
2.226710 57.652 -173.4006
2.242845 57.759 -173.7350
2.259098 57.866 -174.0690
2.275468 57.974 -174.4024
2.291957 58.083 -174.7357
2.308566 58.192 -175.0691
2.325295 58.303 -175.4030
2.342145 58.413 -175.7379
2.359117 58.525 -176.0742
2.376212 58.637 -176.4125
2.393431 58.750 -176.7531
2.410775 58.863 -177.0966
2.428244 58.977 -177.4434
2.445840 59.091 -177.7939
2.463564 59.207 -178.1486
2.481416 59.322 -178.5077
2.499397 59.438 -178.8715
2.517509 59.555 -179.2400
2.535752 59.673 -179.6130
2.554127 59.791 -179.9902
2.572635 59.909 179.6293
2.591277 60.028 179.2461
2.610055 60.148 178.8609
2.628968 60.269 178.4741
2.648019 60.390 178.0857
2.667208 60.512 177.6957
2.686535 60.634 177.3037
2.706003 60.757 176.9094
2.725612 60.881 176.5121
2.745363 61.004 176.1115
2.765257 61.129 175.7069
2.785295 61.254 175.2979
2.805478 61.379 174.8839
2.825808 61.504 174.4644
2.846285 61.630 174.0389
2.866910 61.756 173.6072
2.887685 61.882 173.1691
2.908611 62.009 172.7246
2.929688 62.136 172.2741
2.950917 62.263 171.8182
2.972301 62.390 171.3574
2.993839 62.517 170.8923
3.015534 62.645 170.4232
3.037386 62.773 169.9503
3.059396 62.901 169.4737
3.081565 63.030 168.9932
3.103896 63.159 168.5087
3.126388 63.287 168.0201
3.149043 63.416 167.5270
3.171862 63.545 167.0292
3.194847 63.673 166.5265
3.217998 63.802 166.0185
3.241317 63.930 165.5049
3.264805 64.058 164.9857
3.288463 64.186 164.4607
3.312293 64.313 163.9301
3.336295 64.441 163.3940
3.360471 64.568 162.8527
3.384822 64.695 162.3067
3.409350 64.822 161.7562
3.434056 64.948 161.2017
3.458940 65.074 160.6433
3.484005 65.200 160.0813
3.509252 65.325 159.5159
3.534681 65.450 158.9471
3.560295 65.574 158.3750
3.586094 65.698 157.7994
3.612081 65.822 157.2201
3.638255 65.944 156.6369
3.664620 66.066 156.0493
3.691175 66.187 155.4572
3.717923 66.308 154.8603
3.744864 66.428 154.2589
3.772001 66.547 153.6534
3.799335 66.666 153.0444
3.826866 66.784 152.4326
3.854597 66.901 151.8187
3.882529 67.017 151.2033
3.910664 67.132 150.5870
3.939002 67.247 149.9701
3.967546 67.360 149.3528
3.996296 67.473 148.7350
4.025255 67.585 148.1162
4.054423 67.696 147.4960
4.083804 67.806 146.8738
4.113396 67.915 146.2496
4.143204 68.023 145.6236
4.173227 68.130 144.9965
4.203468 68.235 144.3691
4.233928 68.340 143.7422
4.264609 68.444 143.1167
4.295512 68.547 142.4933
4.326639 68.649 141.8726
4.357992 68.750 141.2546
4.389572 68.850 140.6391
4.421380 68.949 140.0256
4.453419 69.047 139.4136
4.485691 69.143 138.8029
4.518196 69.239 138.1937
4.550936 69.333 137.5864
4.583914 69.427 136.9818
4.617131 69.520 136.3807
4.650589 69.611 135.7841
4.684289 69.702 135.1926
4.718233 69.792 134.6065
4.752424 69.882 134.0261
4.786862 69.970 133.4508
4.821549 70.057 132.8805
4.856488 70.144 132.3147
4.891680 70.230 131.7535
4.927127 70.315 131.1971
4.962831 70.399 130.6458
4.998794 70.482 130.1002
5.035017 70.565 129.5608
5.071503 70.648 129.0280
5.108253 70.730 128.5021
5.145270 70.811 127.9829
5.182555 70.893 127.4704
5.220110 70.973 126.9641
5.257937 71.053 126.4639
5.296038 71.133 125.9696
5.334415 71.213 125.4811
5.373071 71.292 124.9984
5.412006 71.371 124.5217
5.451224 71.450 124.0508
5.490725 71.529 123.5859
5.530514 71.608 123.1268
5.570590 71.687 122.6734
5.610957 71.766 122.2255
5.651616 71.844 121.7826
5.692570 71.923 121.3443
5.733821 72.002 120.9103
5.775370 72.081 120.4802
5.817221 72.160 120.0537
5.859375 72.239 119.6307
5.901834 72.318 119.2110
5.944602 72.397 118.7945
5.987679 72.476 118.3810
6.031068 72.556 117.9702
6.074771 72.635 117.5616
6.118792 72.715 117.1548
6.163131 72.794 116.7496
6.207792 72.873 116.3455
6.252776 72.952 115.9423
6.298086 73.031 115.5401
6.343725 73.110 115.1387
6.389694 73.189 114.7382
6.435996 73.268 114.3383
6.482634 73.346 113.9391
6.529610 73.424 113.5403
6.576926 73.502 113.1420
6.624585 73.579 112.7440
6.672590 73.656 112.3462
6.720942 73.732 111.9489
6.769645 73.808 111.5521
6.818700 73.884 111.1561
6.868111 73.958 110.7612
6.917881 74.033 110.3675
6.968010 74.106 109.9750
7.018504 74.179 109.5839
7.069362 74.251 109.1941
7.120590 74.323 108.8060
7.172189 74.394 108.4196
7.224161 74.465 108.0355
7.276511 74.535 107.6537
7.329239 74.604 107.2746
7.382350 74.673 106.8980
7.435845 74.741 106.5241
7.489729 74.809 106.1528
7.544002 74.877 105.7841
7.598669 74.944 105.4180
7.653732 75.010 105.0547
7.709194 75.077 104.6940
7.765058 75.143 104.3358
7.821327 75.209 103.9800
7.878004 75.275 103.6263
7.935091 75.340 103.2743
7.992592 75.406 102.9238
8.050510 75.471 102.5744
8.108847 75.536 102.2260
8.167607 75.601 101.8781
8.226793 75.666 101.5306
8.286408 75.731 101.1829
8.346454 75.796 100.8347
8.406936 75.861 100.4854
8.467856 75.925 100.1350
8.529218 75.990 99.7831
8.591024 76.054 99.4295
8.653278 76.118 99.0741
8.715983 76.181 98.7166
8.779143 76.244 98.3570
8.842760 76.307 97.9951
8.906839 76.370 97.6309
8.971381 76.432 97.2646
9.036392 76.493 96.8963
9.101873 76.554 96.5262
9.167829 76.614 96.1544
9.234263 76.674 95.7813
9.301178 76.733 95.4069
9.368578 76.791 95.0316
9.436467 76.849 94.6556
9.504847 76.906 94.2793
9.573723 76.963 93.9030
9.643099 77.020 93.5267
9.712976 77.076 93.1505
9.783361 77.132 92.7746
9.854255 77.188 92.3990
9.925663 77.243 92.0236
9.997588 77.298 91.6485
10.070035 77.354 91.2732
10.143007 77.409 90.8976
10.216507 77.465 90.5211
10.290540 77.521 90.1435
10.365109 77.577 89.7643
10.440219 77.634 89.3830
10.515873 77.691 88.9991
10.592076 77.748 88.6118
10.668830 77.805 88.2207
10.746141 77.863 87.8254
10.824012 77.921 87.4253
10.902447 77.979 87.0200
10.981451 78.038 86.6091
11.061027 78.096 86.1923
11.141180 78.155 85.7693
11.221913 78.214 85.3400
11.303232 78.272 84.9043
11.385140 78.331 84.4622
11.467641 78.389 84.0135
11.550741 78.447 83.5586
11.634442 78.504 83.0974
11.718750 78.562 82.6299
11.803669 78.618 82.1566
11.889203 78.674 81.6773
11.975357 78.730 81.1925
12.062136 78.785 80.7023
12.149543 78.838 80.2070
12.237583 78.891 79.7072
12.326262 78.943 79.2032
12.415583 78.994 78.6959
12.505552 79.043 78.1860
12.596172 79.091 77.6747
12.687449 79.137 77.1634
12.779387 79.181 76.6540
12.871992 79.224 76.1483
12.965268 79.264 75.6487
13.059220 79.302 75.1580
13.153852 79.338 74.6790
13.249170 79.373 74.2150
13.345179 79.405 73.7689
13.441884 79.436 73.3439
13.539289 79.467 72.9430
13.637401 79.497 72.5685
13.736223 79.527 72.2220
13.835761 79.559 71.9043
13.936021 79.593 71.6150
14.037007 79.630 71.3526
14.138725 79.672 71.1136
14.241180 79.718 70.8931
14.344377 79.769 70.6850
14.448323 79.827 70.4819
14.553021 79.891 70.2751
14.658478 79.961 70.0552
14.764700 80.037 69.8133
14.871691 80.117 69.5409
14.979457 80.200 69.2304
15.088005 80.285 68.8762
15.197339 80.370 68.4749
15.307465 80.453 68.0258
15.418389 80.532 67.5310
15.530117 80.605 66.9955
15.642655 80.670 66.4273
15.756008 80.726 65.8373
15.870182 80.771 65.2383
15.985184 80.805 64.6452
16.101019 80.828 64.0746
16.217694 80.840 63.5431
16.335214 80.843 63.0667
16.453586 80.838 62.6605
16.572815 80.828 62.3366
16.692909 80.817 62.1026
16.813872 80.809 61.9611
16.935713 80.806 61.9084
17.058436 80.813 61.9333
17.182048 80.833 62.0175
17.306556 80.869 62.1368
17.431967 80.922 62.2625
17.558286 80.991 62.3632
17.685521 81.076 62.4088
17.813677 81.173 62.3729
17.942762 81.278 62.2351
18.072783 81.387 61.9826
18.203746 81.495 61.6114
18.335658 81.596 61.1256
18.468526 81.687 60.5372
18.602356 81.764 59.8647
18.737156 81.824 59.1315
18.872934 81.865 58.3642
19.009695 81.888 57.5912
19.147447 81.893 56.8408
19.286197 81.881 56.1390
19.425953 81.856 55.5080
19.566721 81.822 54.9647
19.708510 81.783 54.5182
19.851326 81.745 54.1698
19.995177 81.710 53.9117
20.140070 81.685 53.7277
20.286013 81.670 53.5949
20.433014 81.669 53.4866
20.581080 81.680 53.3748
20.730219 81.703 53.2345
20.880439 81.734 53.0461
21.031747 81.770 52.7977
21.184152 81.807 52.4858
21.337661 81.842 52.1147
21.492282 81.873 51.6955
21.648024 81.896 51.2441
21.804895 81.913 50.7783
21.962902 81.922 50.3162
22.122054 81.926 49.8730
22.282360 81.926 49.4601
22.443827 81.926 49.0830
22.606464 81.926 48.7415
22.770280 81.931 48.4303
22.935283 81.940 48.1396
23.101481 81.954 47.8577
23.268884 81.974 47.5729
23.437500 81.998 47.2754
23.607338 82.025 46.9590
23.778406 82.053 46.6218
23.950714 82.080 46.2663
24.124271 82.106 45.8982
24.299086 82.129 45.5252
24.475167 82.150 45.1554
24.652524 82.169 44.7957
24.831166 82.187 44.4508
25.011103 82.204 44.1222
25.192344 82.222 43.8087
25.374898 82.242 43.5068
25.558775 82.262 43.2119
25.743984 82.284 42.9198
25.930536 82.306 42.6274
26.118439 82.328 42.3340
26.307704 82.348 42.0411
26.498341 82.367 41.7520
26.690359 82.385 41.4709
26.883768 82.401 41.2015
27.078579 82.417 40.9460
27.274801 82.433 40.7037
27.472446 82.451 40.4713
27.671522 82.471 40.2428
27.872042 82.493 40.0107
28.074014 82.517 39.7674
28.277450 82.542 39.5065
28.482360 82.567 39.2246
28.688755 82.591 38.9212
28.896645 82.612 38.5992
29.106042 82.630 38.2639
29.316957 82.644 37.9219
29.529400 82.656 37.5796
29.743382 82.665 37.2419
29.958915 82.672 36.9117
30.176009 82.679 36.5889
30.394677 82.686 36.2719
30.614929 82.694 35.9573
30.836778 82.702 35.6424
31.060234 82.710 35.3251
31.285309 82.718 35.0051
31.512015 82.725 34.6840
31.740364 82.732 34.3644
31.970368 82.738 34.0498
32.202039 82.744 33.7428
32.435388 82.750 33.4450
32.670428 82.758 33.1563
32.907171 82.766 32.8753
33.145630 82.776 32.5996
33.385817 82.787 32.3266
33.627745 82.799 32.0543
33.871425 82.811 31.7817
34.116871 82.824 31.5088
34.364096 82.836 31.2361
34.613113 82.848 30.9647
34.863934 82.859 30.6955
35.116572 82.870 30.4293
35.371041 82.880 30.1664
35.627354 82.889 29.9071
35.885525 82.898 29.6520
36.145566 82.905 29.4014
36.407492 82.911 29.1555
36.671316 82.917 28.9143
36.937051 82.923 28.6773
37.204712 82.928 28.4431
37.474313 82.933 28.2103
37.745867 82.937 27.9774
38.019389 82.942 27.7433
38.294893 82.946 27.5075
38.572394 82.950 27.2698
38.851905 82.954 27.0304
39.133442 82.958 26.7891
39.417019 82.963 26.5455
39.702651 82.967 26.2991
39.990353 82.972 26.0493
40.280140 82.976 25.7964
40.572026 82.981 25.5414
40.866028 82.986 25.2859
41.162160 82.990 25.0312
41.460438 82.995 24.7786
41.760877 82.999 24.5282
42.063494 83.004 24.2800
42.368303 83.009 24.0347
42.675322 83.013 23.7936
42.984565 83.016 23.5594
43.296048 83.019 23.3353
43.609789 83.022 23.1229
43.925804 83.026 22.9218
44.244108 83.030 22.7288
44.564719 83.036 22.5385
44.887654 83.043 22.3452
45.212928 83.050 22.1452
45.540560 83.056 21.9372
45.870565 83.062 21.7222
46.202962 83.066 21.5021
46.537768 83.069 21.2781
46.875000 83.071 21.0497
47.214676 83.072 20.8161
47.556813 83.072 20.5773
47.901429 83.069 20.3353
48.248542 83.065 20.0946
48.598171 83.060 19.8599
48.950334 83.054 19.6344
49.305048 83.048 19.4183
49.662333 83.043 19.2087
50.022206 83.040 19.0013
50.384688 83.038 18.7930
50.749796 83.036 18.5822
51.117550 83.035 18.3696
51.487969 83.033 18.1572
51.861072 83.032 17.9467
52.236879 83.031 17.7390
52.615409 83.029 17.5346
52.996681 83.027 17.3335
53.380717 83.026 17.1355
53.767536 83.024 16.9397
54.157158 83.022 16.7449
54.549603 83.020 16.5497
54.944892 83.017 16.3533
55.343045 83.013 16.1564
55.744084 83.008 15.9609
56.148028 83.002 15.7691
56.554900 82.996 15.5819
56.964720 82.990 15.3986
57.377510 82.983 15.2169
57.793291 82.978 15.0345
58.212085 82.972 14.8506
58.633914 82.966 14.6656
59.058799 82.960 14.4814
59.486764 82.955 14.2993
59.917829 82.950 14.1195
60.352019 82.946 13.9413
60.789354 82.943 13.7634
61.229859 82.940 13.5844
61.673556 82.938 13.4036
62.120468 82.937 13.2208
62.570618 82.936 13.0374
63.024031 82.935 12.8557
63.480729 82.934 12.6788
63.940736 82.933 12.5075
64.404077 82.933 12.3402
64.870776 82.935 12.1741
65.340856 82.937 12.0070
65.814343 82.939 11.8370
66.291261 82.942 11.6595
66.771635 82.945 11.4667
67.255489 82.947 11.2521
67.742850 82.944 11.0187
68.233743 82.934 10.7821
68.728193 82.919 10.5636
69.226226 82.900 10.3774
69.727867 82.881 10.2214
70.233144 82.863 10.0803
70.742083 82.847 9.9370
71.254709 82.831 9.7845
71.771050 82.814 9.6277
72.291132 82.796 9.4763
72.814984 82.777 9.3364
73.342631 82.761 9.2065
73.874102 82.746 9.0798
74.409424 82.734 8.9491
74.948626 82.723 8.8108
75.491734 82.713 8.6659
76.038779 82.702 8.5181
76.589787 82.691 8.3711
77.144788 82.680 8.2268
77.703811 82.668 8.0848
78.266885 82.656 7.9437
78.834039 82.643 7.8018
79.405303 82.628 7.6591
79.980706 82.613 7.5155
80.560280 82.596 7.3705
81.144053 82.579 7.2227
81.732056 82.560 7.0713
82.324320 82.540 6.9175
82.920876 82.520 6.7640
83.521755 82.498 6.6134
84.126988 82.478 6.4662
84.736607 82.457 6.3212
85.350643 82.438 6.1760
85.969129 82.419 6.0289
86.592097 82.400 5.8793
87.219579 82.381 5.7274
87.851608 82.361 5.5745
88.488217 82.340 5.4216
89.129439 82.316 5.2701
89.775308 82.290 5.1218
90.425856 82.262 4.9789
91.081119 82.231 4.8430
91.741131 82.198 4.7144
92.405925 82.162 4.5924
93.075536 82.123 4.4788
93.750000 82.080 4.3780
94.429351 82.034 4.2992
95.113625 81.983 4.2551
95.802858 81.930 4.2614
