* Measurement data measured by REW V5.31.3
* Source: Headset (CX31993 HIFI AUDIO), MICROPHONE (Master Volume), R, volume: 0.250
* Format: 256k Log Swept Sine, 1 sweep at -12.0 dBFS with no timing reference
* Dated: 12 31, 24 12:55:34 PM
* REW Settings:
*  C-weighting compensation: Off
*  Target level: 75.0 dB
* Note: ; 
* Measurement: Sony LB Fit Relaxed L
* Smoothing: 1/12 octave
* Frequency Step: 96 ppo
* Start Frequency: 0.36621094 Hz
*
* Freq(Hz) SPL(dB) Phase(degrees)
0.366211 25.069 -101.7026
0.368865 25.103 -101.7908
0.371538 25.154 -101.9203
0.374230 25.217 -102.0785
0.376942 25.287 -102.2545
0.379673 25.363 -102.4404
0.382424 25.441 -102.6312
0.385196 25.522 -102.8237
0.387987 25.604 -103.0161
0.390798 25.687 -103.2076
0.393630 25.770 -103.3976
0.396483 25.855 -103.5860
0.399356 25.940 -103.7725
0.402250 26.025 -103.9572
0.405165 26.112 -104.1402
0.408101 26.199 -104.3214
0.411058 26.286 -104.5010
0.414037 26.374 -104.6789
0.417037 26.463 -104.8553
0.420059 26.553 -105.0302
0.423103 26.643 -105.2037
0.426169 26.734 -105.3759
0.429257 26.825 -105.5468
0.432368 26.917 -105.7166
0.435501 27.010 -105.8853
0.438656 27.103 -106.0530
0.441835 27.197 -106.2197
0.445037 27.292 -106.3857
0.448262 27.388 -106.5509
0.451510 27.484 -106.7154
0.454782 27.581 -106.8794
0.458077 27.678 -107.0430
0.461397 27.777 -107.2062
0.464740 27.876 -107.3691
0.468108 27.975 -107.5319
0.471500 28.076 -107.6946
0.474917 28.177 -107.8574
0.478358 28.279 -108.0202
0.481825 28.382 -108.1834
0.485316 28.485 -108.3468
0.488833 28.589 -108.5107
0.492375 28.694 -108.6752
0.495943 28.800 -108.8402
0.499537 28.906 -109.0061
0.503157 29.013 -109.1728
0.506803 29.121 -109.3405
0.510475 29.230 -109.5092
0.514175 29.340 -109.6791
0.517900 29.450 -109.8503
0.521653 29.561 -110.0228
0.525434 29.673 -110.1968
0.529241 29.786 -110.3724
0.533076 29.899 -110.5497
0.536939 30.014 -110.7288
0.540830 30.129 -110.9097
0.544749 30.245 -111.0927
0.548696 30.362 -111.2777
0.552673 30.480 -111.4650
0.556677 30.598 -111.6545
0.560711 30.718 -111.8463
0.564774 30.838 -112.0407
0.568867 30.959 -112.2376
0.572989 31.082 -112.4372
0.577141 31.205 -112.6396
0.581324 31.328 -112.8448
0.585536 31.453 -113.0529
0.589779 31.579 -113.2641
0.594053 31.705 -113.4783
0.598358 31.833 -113.6958
0.602694 31.961 -113.9166
0.607061 32.091 -114.1407
0.611460 32.221 -114.3682
0.615891 32.352 -114.5993
0.620354 32.485 -114.8340
0.624849 32.618 -115.0723
0.629377 32.752 -115.3144
0.633938 32.887 -115.5604
0.638532 33.023 -115.8102
0.643159 33.160 -116.0639
0.647819 33.298 -116.3217
0.652514 33.437 -116.5835
0.657242 33.578 -116.8495
0.662005 33.719 -117.1197
0.666802 33.861 -117.3941
0.671634 34.004 -117.6729
0.676501 34.148 -117.9560
0.681403 34.293 -118.2434
0.686341 34.440 -118.5353
0.691314 34.587 -118.8317
0.696324 34.735 -119.1324
0.701370 34.884 -119.4376
0.706452 35.034 -119.7469
0.711571 35.183 -120.0603
0.716728 35.333 -120.3773
0.721921 35.482 -120.6971
0.727153 35.630 -121.0188
0.732422 35.775 -121.3409
0.737729 35.918 -121.6619
0.743075 36.059 -121.9802
0.748460 36.198 -122.2946
0.753883 36.336 -122.6043
0.759346 36.473 -122.9089
0.764849 36.610 -123.2083
0.770391 36.747 -123.5026
0.775974 36.884 -123.7918
0.781597 37.021 -124.0764
0.787261 37.158 -124.3564
0.792966 37.295 -124.6323
0.798712 37.433 -124.9044
0.804500 37.570 -125.1729
0.810329 37.708 -125.4381
0.816201 37.846 -125.7005
0.822116 37.984 -125.9602
0.828073 38.123 -126.2176
0.834074 38.261 -126.4729
0.840118 38.400 -126.7266
0.846206 38.539 -126.9788
0.852338 38.678 -127.2300
0.858514 38.817 -127.4803
0.864735 38.956 -127.7300
0.871001 39.096 -127.9795
0.877313 39.236 -128.2290
0.883670 39.376 -128.4787
0.890074 39.516 -128.7290
0.896524 39.656 -128.9802
0.903020 39.797 -129.2324
0.909564 39.938 -129.4860
0.916155 40.079 -129.7411
0.922794 40.220 -129.9981
0.929481 40.362 -130.2572
0.936216 40.503 -130.5186
0.943000 40.645 -130.7826
0.949834 40.788 -131.0494
0.956717 40.930 -131.3192
0.963649 41.073 -131.5922
0.970632 41.216 -131.8688
0.977666 41.359 -132.1490
0.984750 41.503 -132.4332
0.991886 41.647 -132.7215
0.999074 41.792 -133.0141
1.006314 41.936 -133.3113
1.013606 42.081 -133.6132
1.020951 42.227 -133.9200
1.028349 42.373 -134.2319
1.035801 42.519 -134.5491
1.043307 42.666 -134.8718
1.050867 42.813 -135.2000
1.058482 42.961 -135.5338
1.066152 43.109 -135.8732
1.073878 43.257 -136.2179
1.081660 43.406 -136.5675
1.089498 43.555 -136.9214
1.097393 43.705 -137.2784
1.105345 43.854 -137.6373
1.113355 44.004 -137.9969
1.121423 44.154 -138.3559
1.129549 44.304 -138.7136
1.137734 44.454 -139.0697
1.145979 44.604 -139.4238
1.154283 44.753 -139.7760
1.162647 44.903 -140.1263
1.171072 45.052 -140.4748
1.179558 45.202 -140.8218
1.188106 45.351 -141.1674
1.196715 45.500 -141.5118
1.205387 45.649 -141.8552
1.214122 45.798 -142.1979
1.222920 45.947 -142.5401
1.231782 46.096 -142.8819
1.240708 46.245 -143.2236
1.249699 46.394 -143.5655
1.258754 46.542 -143.9077
1.267876 46.691 -144.2505
1.277063 46.840 -144.5941
1.286318 46.989 -144.9387
1.295639 47.137 -145.2847
1.305027 47.286 -145.6321
1.314484 47.435 -145.9812
1.324009 47.584 -146.3324
1.333604 47.733 -146.6857
1.343268 47.882 -147.0414
1.353002 48.031 -147.3998
1.362806 48.180 -147.7611
1.372681 48.330 -148.1255
1.382628 48.479 -148.4933
1.392647 48.629 -148.8645
1.402739 48.779 -149.2395
1.412904 48.930 -149.6183
1.423142 49.080 -150.0009
1.433455 49.231 -150.3874
1.443843 49.382 -150.7773
1.454305 49.533 -151.1702
1.464844 49.684 -151.5653
1.475459 49.835 -151.9616
1.486150 49.986 -152.3582
1.496920 50.137 -152.7543
1.507767 50.287 -153.1495
1.518693 50.438 -153.5435
1.529698 50.588 -153.9365
1.540783 50.737 -154.3285
1.551948 50.886 -154.7197
1.563194 51.035 -155.1104
1.574521 51.184 -155.5010
1.585931 51.332 -155.8916
1.597423 51.481 -156.2827
1.608999 51.628 -156.6745
1.620658 51.776 -157.0674
1.632402 51.923 -157.4618
1.644232 52.070 -157.8579
1.656146 52.217 -158.2561
1.668147 52.364 -158.6568
1.680235 52.511 -159.0602
1.692411 52.657 -159.4667
1.704675 52.804 -159.8767
1.717028 52.950 -160.2905
1.729470 53.096 -160.7084
1.742003 53.242 -161.1307
1.754626 53.388 -161.5578
1.767341 53.534 -161.9900
1.780147 53.681 -162.4273
1.793047 53.827 -162.8700
1.806040 53.973 -163.3180
1.819128 54.119 -163.7711
1.832310 54.265 -164.2289
1.845587 54.410 -164.6907
1.858961 54.556 -165.1558
1.872432 54.700 -165.6237
1.886001 54.845 -166.0939
1.899667 54.989 -166.5659
1.913433 55.132 -167.0396
1.927299 55.275 -167.5146
1.941265 55.418 -167.9910
1.955332 55.559 -168.4685
1.969501 55.701 -168.9473
1.983773 55.842 -169.4272
1.998148 55.983 -169.9083
2.012627 56.123 -170.3906
2.027212 56.263 -170.8742
2.041902 56.402 -171.3591
2.056698 56.542 -171.8455
2.071602 56.680 -172.3335
2.086614 56.819 -172.8233
2.101734 56.957 -173.3149
2.116964 57.096 -173.8086
2.132304 57.234 -174.3046
2.147756 57.371 -174.8030
2.163320 57.509 -175.3041
2.178996 57.646 -175.8080
2.194786 57.783 -176.3149
2.210690 57.920 -176.8247
2.226710 58.056 -177.3374
2.242845 58.191 -177.8528
2.259098 58.326 -178.3707
2.275468 58.461 -178.8909
2.291957 58.594 -179.4130
2.308566 58.727 -179.9368
2.325295 58.860 179.5380
2.342145 58.991 179.0115
2.359117 59.123 178.4840
2.376212 59.253 177.9556
2.393431 59.383 177.4265
2.410775 59.513 176.8968
2.428244 59.642 176.3666
2.445840 59.771 175.8359
2.463564 59.899 175.3048
2.481416 60.027 174.7731
2.499397 60.155 174.2409
2.517509 60.282 173.7079
2.535752 60.409 173.1738
2.554127 60.536 172.6385
2.572635 60.662 172.1014
2.591277 60.787 171.5623
2.610055 60.912 171.0211
2.628968 61.036 170.4776
2.648019 61.159 169.9321
2.667208 61.282 169.3848
2.686535 61.404 168.8360
2.706003 61.525 168.2861
2.725612 61.646 167.7354
2.745363 61.766 167.1842
2.765257 61.885 166.6329
2.785295 62.004 166.0818
2.805478 62.122 165.5311
2.825808 62.240 164.9811
2.846285 62.357 164.4318
2.866910 62.474 163.8832
2.887685 62.591 163.3354
2.908611 62.707 162.7881
2.929688 62.823 162.2408
2.950917 62.938 161.6931
2.972301 63.053 161.1446
2.993839 63.167 160.5951
3.015534 63.280 160.0445
3.037386 63.392 159.4929
3.059396 63.504 158.9407
3.081565 63.615 158.3881
3.103896 63.725 157.8356
3.126388 63.835 157.2833
3.149043 63.944 156.7319
3.171862 64.053 156.1815
3.194847 64.162 155.6324
3.217998 64.270 155.0849
3.241317 64.377 154.5391
3.264805 64.485 153.9948
3.288463 64.592 153.4520
3.312293 64.698 152.9102
3.336295 64.804 152.3690
3.360471 64.910 151.8282
3.384822 65.015 151.2877
3.409350 65.119 150.7472
3.434056 65.223 150.2070
3.458940 65.326 149.6672
3.484005 65.429 149.1281
3.509252 65.531 148.5897
3.534681 65.633 148.0524
3.560295 65.735 147.5163
3.586094 65.836 146.9816
3.612081 65.937 146.4484
3.638255 66.038 145.9165
3.664620 66.139 145.3860
3.691175 66.240 144.8565
3.717923 66.340 144.3279
3.744864 66.439 143.7999
3.772001 66.539 143.2725
3.799335 66.637 142.7455
3.826866 66.736 142.2189
3.854597 66.834 141.6927
3.882529 66.932 141.1670
3.910664 67.030 140.6417
3.939002 67.128 140.1168
3.967546 67.225 139.5923
3.996296 67.322 139.0682
4.025255 67.419 138.5445
4.054423 67.516 138.0210
4.083804 67.613 137.4976
4.113396 67.709 136.9742
4.143204 67.806 136.4507
4.173227 67.901 135.9270
4.203468 67.997 135.4029
4.233928 68.093 134.8783
4.264609 68.188 134.3531
4.295512 68.283 133.8271
4.326639 68.378 133.3003
4.357992 68.472 132.7724
4.389572 68.566 132.2433
4.421380 68.660 131.7130
4.453419 68.754 131.1812
4.485691 68.848 130.6480
4.518196 68.941 130.1135
4.550936 69.034 129.5775
4.583914 69.126 129.0402
4.617131 69.218 128.5015
4.650589 69.310 127.9614
4.684289 69.401 127.4198
4.718233 69.492 126.8765
4.752424 69.582 126.3313
4.786862 69.672 125.7841
4.821549 69.761 125.2346
4.856488 69.850 124.6830
4.891680 69.938 124.1294
4.927127 70.026 123.5740
4.962831 70.113 123.0172
4.998794 70.199 122.4592
5.035017 70.285 121.9002
5.071503 70.370 121.3403
5.108253 70.454 120.7794
5.145270 70.537 120.2173
5.182555 70.620 119.6537
5.220110 70.701 119.0887
5.257937 70.782 118.5224
5.296038 70.862 117.9554
5.334415 70.942 117.3882
5.373071 71.020 116.8214
5.412006 71.097 116.2554
5.451224 71.174 115.6906
5.490725 71.249 115.1268
5.530514 71.324 114.5641
5.570590 71.398 114.0022
5.610957 71.471 113.4413
5.651616 71.543 112.8816
5.692570 71.613 112.3237
5.733821 71.684 111.7683
5.775370 71.753 111.2159
5.817221 71.822 110.6671
5.859375 71.889 110.1219
5.901834 71.956 109.5804
5.944602 72.023 109.0424
5.987679 72.088 108.5079
6.031068 72.153 107.9770
6.074771 72.217 107.4500
6.118792 72.281 106.9273
6.163131 72.345 106.4091
6.207792 72.408 105.8958
6.252776 72.471 105.3872
6.298086 72.533 104.8835
6.343725 72.596 104.3843
6.389694 72.658 103.8893
6.435996 72.720 103.3983
6.482634 72.782 102.9109
6.529610 72.844 102.4272
6.576926 72.907 101.9468
6.624585 72.969 101.4698
6.672590 73.032 100.9958
6.720942 73.095 100.5244
6.769645 73.159 100.0550
6.818700 73.222 99.5869
6.868111 73.286 99.1195
6.917881 73.351 98.6520
6.968010 73.416 98.1841
7.018504 73.481 97.7154
7.069362 73.547 97.2457
7.120590 73.613 96.7743
7.172189 73.679 96.3006
7.224161 73.746 95.8239
7.276511 73.812 95.3436
7.329239 73.879 94.8591
7.382350 73.946 94.3701
7.435845 74.013 93.8765
7.489729 74.080 93.3781
7.544002 74.147 92.8748
7.598669 74.213 92.3665
7.653732 74.279 91.8528
7.709194 74.344 91.3338
7.765058 74.408 90.8093
7.821327 74.472 90.2797
7.878004 74.535 89.7454
7.935091 74.598 89.2069
7.992592 74.659 88.6647
8.050510 74.719 88.1193
8.108847 74.778 87.5710
8.167607 74.836 87.0201
8.226793 74.892 86.4674
8.286408 74.948 85.9137
8.346454 75.002 85.3600
8.406936 75.054 84.8071
8.467856 75.106 84.2556
8.529218 75.157 83.7058
8.591024 75.206 83.1583
8.653278 75.254 82.6138
8.715983 75.302 82.0730
8.779143 75.348 81.5364
8.842760 75.394 81.0045
8.906839 75.439 80.4772
8.971381 75.484 79.9546
9.036392 75.529 79.4366
9.101873 75.573 78.9230
9.167829 75.617 78.4138
9.234263 75.661 77.9086
9.301178 75.706 77.4069
9.368578 75.750 76.9078
9.436467 75.795 76.4104
9.504847 75.840 75.9139
9.573723 75.886 75.4175
9.643099 75.932 74.9203
9.712976 75.979 74.4215
9.783361 76.025 73.9199
9.854255 76.072 73.4146
9.925663 76.119 72.9046
9.997588 76.166 72.3895
10.070035 76.213 71.8689
10.143007 76.259 71.3423
10.216507 76.305 70.8096
10.290540 76.350 70.2707
10.365109 76.394 69.7258
10.440219 76.437 69.1755
10.515873 76.479 68.6207
10.592076 76.519 68.0623
10.668830 76.557 67.5015
10.746141 76.594 66.9393
10.824012 76.629 66.3773
10.902447 76.662 65.8172
10.981451 76.693 65.2608
11.061027 76.722 64.7097
11.141180 76.750 64.1653
11.221913 76.776 63.6291
11.303232 76.800 63.1028
11.385140 76.824 62.5874
11.467641 76.847 62.0840
11.550741 76.869 61.5929
11.634442 76.891 61.1143
11.718750 76.914 60.6482
11.803669 76.937 60.1940
11.889203 76.960 59.7506
11.975357 76.985 59.3164
12.062136 77.012 58.8896
12.149543 77.040 58.4681
12.237583 77.070 58.0496
12.326262 77.102 57.6313
12.415583 77.135 57.2106
12.505552 77.170 56.7847
12.596172 77.207 56.3514
12.687449 77.244 55.9085
12.779387 77.283 55.4541
12.871992 77.321 54.9869
12.965268 77.360 54.5060
13.059220 77.397 54.0115
13.153852 77.434 53.5038
13.249170 77.469 52.9837
13.345179 77.502 52.4531
13.441884 77.533 51.9141
13.539289 77.561 51.3694
13.637401 77.586 50.8222
13.736223 77.608 50.2754
13.835761 77.627 49.7326
13.936021 77.643 49.1971
14.037007 77.657 48.6718
14.138725 77.668 48.1596
14.241180 77.678 47.6624
14.344377 77.687 47.1821
14.448323 77.694 46.7191
14.553021 77.702 46.2735
14.658478 77.711 45.8441
14.764700 77.720 45.4292
14.871691 77.731 45.0261
14.979457 77.744 44.6314
15.088005 77.758 44.2415
15.197339 77.775 43.8524
15.307465 77.794 43.4601
15.418389 77.815 43.0608
15.530117 77.836 42.6515
15.642655 77.858 42.2299
15.756008 77.881 41.7944
15.870182 77.902 41.3446
15.985184 77.923 40.8813
16.101019 77.941 40.4061
16.217694 77.957 39.9217
16.335214 77.971 39.4315
16.453586 77.981 38.9395
16.572815 77.988 38.4499
16.692909 77.992 37.9666
16.813872 77.994 37.4936
16.935713 77.993 37.0339
17.058436 77.991 36.5897
17.182048 77.988 36.1621
17.306556 77.985 35.7511
17.431967 77.982 35.3554
17.558286 77.980 34.9729
17.685521 77.980 34.6003
17.813677 77.981 34.2340
17.942762 77.984 33.8703
18.072783 77.988 33.5056
18.203746 77.993 33.1369
18.335658 77.999 32.7622
18.468526 78.006 32.3805
18.602356 78.011 31.9921
18.737156 78.016 31.5983
18.872934 78.020 31.2010
19.009695 78.023 30.8031
19.147447 78.024 30.4073
19.286197 78.024 30.0161
19.425953 78.023 29.6312
19.566721 78.023 29.2534
19.708510 78.022 28.8821
19.851326 78.023 28.5157
19.995177 78.024 28.1512
20.140070 78.027 27.7852
20.286013 78.031 27.4139
20.433014 78.035 27.0341
20.581080 78.040 26.6432
20.730219 78.043 26.2402
20.880439 78.046 25.8259
21.031747 78.046 25.4030
21.184152 78.043 24.9755
21.337661 78.037 24.5491
21.492282 78.027 24.1299
21.648024 78.015 23.7240
21.804895 78.000 23.3365
21.962902 77.984 22.9708
22.122054 77.968 22.6283
22.282360 77.953 22.3077
22.443827 77.940 22.0051
22.606464 77.930 21.7147
22.770280 77.923 21.4294
22.935283 77.919 21.1415
23.101481 77.918 20.8441
23.268884 77.918 20.5319
23.437500 77.918 20.2018
23.607338 77.917 19.8538
23.778406 77.915 19.4901
23.950714 77.909 19.1158
24.124271 77.900 18.7374
24.299086 77.887 18.3622
24.475167 77.871 17.9976
24.652524 77.851 17.6499
24.831166 77.830 17.3239
25.011103 77.808 17.0220
25.192344 77.786 16.7444
25.374898 77.766 16.4886
25.558775 77.748 16.2503
25.743984 77.732 16.0227
25.930536 77.721 15.7983
26.118439 77.712 15.5687
26.307704 77.707 15.3260
26.498341 77.703 15.0632
26.690359 77.700 14.7753
26.883768 77.696 14.4598
27.078579 77.690 14.1178
27.274801 77.680 13.7535
27.472446 77.665 13.3746
27.671522 77.643 12.9915
27.872042 77.616 12.6161
28.074014 77.582 12.2609
28.277450 77.544 11.9362
28.482360 77.503 11.6495
28.688755 77.461 11.4035
28.896645 77.421 11.1955
29.106042 77.383 11.0179
29.316957 77.350 10.8595
29.529400 77.322 10.7076
29.743382 77.297 10.5506
29.958915 77.275 10.3802
30.176009 77.254 10.1930
30.394677 77.233 9.9901
30.614929 77.210 9.7767
30.836778 77.185 9.5601
31.060234 77.159 9.3467
31.285309 77.131 9.1411
31.512015 77.104 8.9437
31.740364 77.077 8.7520
31.970368 77.052 8.5602
32.202039 77.027 8.3629
32.435388 77.003 8.1561
32.670428 76.978 7.9391
32.907171 76.950 7.7156
33.145630 76.920 7.4924
33.385817 76.886 7.2783
33.627745 76.850 7.0819
33.871425 76.813 6.9092
34.116871 76.775 6.7625
34.364096 76.740 6.6399
34.613113 76.706 6.5358
34.863934 76.676 6.4423
35.116572 76.650 6.3510
35.371041 76.625 6.2542
35.627354 76.603 6.1466
35.885525 76.581 6.0255
36.145566 76.559 5.8912
36.407492 76.535 5.7465
36.671316 76.509 5.5966
36.937051 76.481 5.4480
37.204712 76.450 5.3080
37.474313 76.416 5.1826
37.745867 76.381 5.0758
38.019389 76.347 4.9886
38.294893 76.313 4.9186
38.572394 76.281 4.8605
38.851905 76.251 4.8075
39.133442 76.224 4.7530
39.417019 76.198 4.6916
39.702651 76.172 4.6199
39.990353 76.147 4.5367
40.280140 76.121 4.4422
40.572026 76.094 4.3383
40.866028 76.066 4.2283
41.162160 76.035 4.1174
41.460438 76.002 4.0121
41.760877 75.968 3.9187
42.063494 75.932 3.8422
42.368303 75.898 3.7830
42.675322 75.864 3.7369
42.984565 75.834 3.6961
43.296048 75.804 3.6530
43.609789 75.775 3.6040
43.925804 75.745 3.5529
44.244108 75.713 3.5101
44.564719 75.678 3.4884
44.887654 75.643 3.4969
45.212928 75.610 3.5358
45.540560 75.581 3.5950
45.870565 75.557 3.6583
46.202962 75.535 3.7103
46.537768 75.515 3.7437
46.875000 75.492 3.7615
47.214676 75.466 3.7753
47.556813 75.437 3.7990
47.901429 75.406 3.8417
48.248542 75.375 3.9045
48.598171 75.345 3.9810
48.950334 75.317 4.0615
49.305048 75.290 4.1379
49.662333 75.262 4.2069
50.022206 75.235 4.2700
50.384688 75.206 4.3316
50.749796 75.176 4.3962
51.117550 75.147 4.4663
51.487969 75.117 4.5422
51.861072 75.089 4.6224
52.236879 75.063 4.7047
52.615409 75.037 4.7873
52.996681 75.013 4.8688
53.380717 74.991 4.9484
53.767536 74.969 5.0248
54.157158 74.948 5.0975
54.549603 74.928 5.1663
54.944892 74.907 5.2329
55.343045 74.884 5.3013
55.744084 74.861 5.3765
56.148028 74.836 5.4634
56.554900 74.811 5.5654
56.964720 74.786 5.6841
57.377510 74.760 5.8205
57.793291 74.735 5.9753
58.212085 74.712 6.1489
58.633914 74.691 6.3389
59.058799 74.673 6.5399
59.486764 74.658 6.7429
59.917829 74.647 6.9391
60.352019 74.638 7.1234
60.789354 74.629 7.2963
61.229859 74.620 7.4628
61.673556 74.611 7.6286
62.120468 74.601 7.7970
62.570618 74.591 7.9697
63.024031 74.580 8.1491
63.480729 74.568 8.3396
63.940736 74.554 8.5469
64.404077 74.540 8.7761
64.870776 74.525 9.0322
65.340856 74.511 9.3212
65.814343 74.500 9.6453
66.291261 74.495 9.9931
66.771635 74.498 10.3335
67.255489 74.509 10.6242
67.742850 74.522 10.8353
68.233743 74.529 10.9708
68.728193 74.527 11.0689
69.226226 74.514 11.1793
69.727867 74.498 11.3345
70.233144 74.484 11.5349
70.742083 74.476 11.7532
71.254709 74.476 11.9535
71.771050 74.480 12.1116
72.291132 74.483 12.2261
72.814984 74.484 12.3158
73.342631 74.480 12.4054
73.874102 74.475 12.5116
74.409424 74.469 12.6378
74.948626 74.465 12.7787
75.491734 74.461 12.9291
76.038779 74.459 13.0867
76.589787 74.457 13.2524
77.144788 74.456 13.4275
77.703811 74.456 13.6126
78.266885 74.458 13.8066
78.834039 74.462 14.0062
79.405303 74.469 14.2063
79.980706 74.478 14.4032
80.560280 74.489 14.5952
81.144053 74.500 14.7823
81.732056 74.513 14.9653
82.324320 74.526 15.1445
82.920876 74.539 15.3204
83.521755 74.553 15.4943
84.126988 74.565 15.6680
84.736607 74.577 15.8447
85.350643 74.589 16.0269
85.969129 74.601 16.2151
86.592097 74.614 16.4077
87.219579 74.627 16.6023
87.851608 74.641 16.7972
88.488217 74.656 16.9911
89.129439 74.671 17.1817
89.775308 74.687 17.3658
90.425856 74.702 17.5412
91.081119 74.717 17.7083
91.741131 74.729 17.8702
92.405925 74.740 18.0311
93.075536 74.750 18.1935
93.750000 74.759 18.3581
94.429351 74.767 18.5248
95.113625 74.776 18.6926
95.802858 74.785 18.8598
96.497085 74.794 19.0250
97.196342 74.803 19.1891
97.900667 74.811 19.3568
98.610096 74.817 19.5361
99.324665 74.821 19.7372
