* Measurement data measured by REW V5.31.3
* Source: Headset (CX31993 HIFI AUDIO), MICROPHONE (Master Volume), R, volume: 0.250
* Format: 256k Log Swept Sine, 1 sweep at -12.0 dBFS with no timing reference
* Dated: 12 31, 24 12:55:15 PM
* REW Settings:
*  C-weighting compensation: Off
*  Target level: 75.0 dB
* Note: ; 
* Measurement: Sony LB Fit Mellow L
* Smoothing: 1/12 octave
* Frequency Step: 96 ppo
* Start Frequency: 0.36621094 Hz
*
* Freq(Hz) SPL(dB) Phase(degrees)
0.366211 25.806 -168.4510
0.368865 25.832 -168.2322
0.371538 25.870 -167.9073
0.374230 25.918 -167.5043
0.376942 25.971 -167.0474
0.379673 26.028 -166.5542
0.382424 26.087 -166.0364
0.385196 26.148 -165.5011
0.387987 26.209 -164.9525
0.390798 26.272 -164.3929
0.393630 26.335 -163.8237
0.396483 26.399 -163.2454
0.399356 26.463 -162.6586
0.402250 26.528 -162.0633
0.405165 26.593 -161.4598
0.408101 26.658 -160.8482
0.411058 26.725 -160.2285
0.414037 26.791 -159.6010
0.417037 26.858 -158.9657
0.420059 26.926 -158.3228
0.423103 26.994 -157.6723
0.426169 27.062 -157.0145
0.429257 27.131 -156.3496
0.432368 27.201 -155.6777
0.435501 27.271 -154.9990
0.438656 27.342 -154.3138
0.441835 27.413 -153.6223
0.445037 27.484 -152.9247
0.448262 27.556 -152.2214
0.451510 27.629 -151.5125
0.454782 27.702 -150.7985
0.458077 27.776 -150.0795
0.461397 27.850 -149.3559
0.464740 27.925 -148.6281
0.468108 28.000 -147.8964
0.471500 28.076 -147.1611
0.474917 28.152 -146.4227
0.478358 28.229 -145.6815
0.481825 28.307 -144.9379
0.485316 28.385 -144.1922
0.488833 28.463 -143.4450
0.492375 28.543 -142.6965
0.495943 28.622 -141.9473
0.499537 28.703 -141.1977
0.503157 28.784 -140.4482
0.506803 28.865 -139.6991
0.510475 28.947 -138.9509
0.514175 29.030 -138.2040
0.517900 29.113 -137.4589
0.521653 29.197 -136.7159
0.525434 29.282 -135.9755
0.529241 29.367 -135.2380
0.533076 29.453 -134.5039
0.536939 29.539 -133.7735
0.540830 29.626 -133.0473
0.544749 29.714 -132.3255
0.548696 29.802 -131.6087
0.552673 29.891 -130.8970
0.556677 29.980 -130.1908
0.560711 30.071 -129.4905
0.564774 30.161 -128.7964
0.568867 30.253 -128.1088
0.572989 30.345 -127.4279
0.577141 30.438 -126.7541
0.581324 30.531 -126.0874
0.585536 30.626 -125.4284
0.589779 30.721 -124.7770
0.594053 30.816 -124.1336
0.598358 30.912 -123.4983
0.602694 31.009 -122.8714
0.607061 31.107 -122.2529
0.611460 31.205 -121.6430
0.615891 31.304 -121.0418
0.620354 31.404 -120.4496
0.624849 31.505 -119.8663
0.629377 31.606 -119.2921
0.633938 31.708 -118.7270
0.638532 31.811 -118.1711
0.643159 31.914 -117.6245
0.647819 32.019 -117.0872
0.652514 32.124 -116.5592
0.657242 32.229 -116.0406
0.662005 32.336 -115.5313
0.666802 32.443 -115.0315
0.671634 32.551 -114.5411
0.676501 32.660 -114.0602
0.681403 32.770 -113.5889
0.686341 32.880 -113.1275
0.691314 32.992 -112.6766
0.696324 33.104 -112.2372
0.701370 33.217 -111.8111
0.706452 33.332 -111.4017
0.711571 33.448 -111.0143
0.716728 33.565 -110.6568
0.721921 33.685 -110.3405
0.727153 33.809 -110.0783
0.732422 33.935 -109.8818
0.737729 34.066 -109.7542
0.743075 34.201 -109.6858
0.748460 34.340 -109.6606
0.753883 34.482 -109.6630
0.759346 34.627 -109.6813
0.764849 34.775 -109.7077
0.770391 34.926 -109.7376
0.775974 35.080 -109.7688
0.781597 35.235 -109.8002
0.787261 35.394 -109.8315
0.792966 35.555 -109.8630
0.798712 35.718 -109.8951
0.804500 35.883 -109.9283
0.810329 36.051 -109.9631
0.816201 36.221 -110.0000
0.822116 36.394 -110.0397
0.828073 36.569 -110.0826
0.834074 36.745 -110.1292
0.840118 36.924 -110.1801
0.846206 37.105 -110.2356
0.852338 37.288 -110.2963
0.858514 37.473 -110.3625
0.864735 37.659 -110.4347
0.871001 37.848 -110.5133
0.877313 38.038 -110.5986
0.883670 38.230 -110.6910
0.890074 38.423 -110.7908
0.896524 38.618 -110.8985
0.903020 38.815 -111.0142
0.909564 39.012 -111.1384
0.916155 39.211 -111.2713
0.922794 39.411 -111.4133
0.929481 39.612 -111.5645
0.936216 39.814 -111.7254
0.943000 40.017 -111.8961
0.949834 40.220 -112.0770
0.956717 40.424 -112.2682
0.963649 40.628 -112.4701
0.970632 40.833 -112.6828
0.977666 41.038 -112.9068
0.984750 41.243 -113.1420
0.991886 41.447 -113.3889
0.999074 41.652 -113.6477
1.006314 41.856 -113.9185
1.013606 42.059 -114.2016
1.020951 42.262 -114.4972
1.028349 42.463 -114.8055
1.035801 42.663 -115.1266
1.043307 42.863 -115.4609
1.050867 43.060 -115.8082
1.058482 43.256 -116.1687
1.066152 43.450 -116.5422
1.073878 43.642 -116.9284
1.081660 43.832 -117.3263
1.089498 44.020 -117.7349
1.097393 44.206 -118.1524
1.105345 44.390 -118.5766
1.113355 44.572 -119.0053
1.121423 44.753 -119.4366
1.129549 44.933 -119.8690
1.137734 45.111 -120.3018
1.145979 45.288 -120.7342
1.154283 45.464 -121.1660
1.162647 45.639 -121.5972
1.171072 45.813 -122.0275
1.179558 45.985 -122.4573
1.188106 46.157 -122.8865
1.196715 46.327 -123.3153
1.205387 46.497 -123.7438
1.214122 46.665 -124.1723
1.222920 46.833 -124.6009
1.231782 47.000 -125.0299
1.240708 47.166 -125.4594
1.249699 47.331 -125.8898
1.258754 47.496 -126.3213
1.267876 47.659 -126.7540
1.277063 47.822 -127.1884
1.286318 47.985 -127.6247
1.295639 48.147 -128.0631
1.305027 48.308 -128.5040
1.314484 48.469 -128.9476
1.324009 48.630 -129.3943
1.333604 48.791 -129.8445
1.343268 48.951 -130.2984
1.353002 49.111 -130.7564
1.362806 49.271 -131.2188
1.372681 49.431 -131.6859
1.382628 49.592 -132.1582
1.392647 49.752 -132.6360
1.402739 49.913 -133.1195
1.412904 50.074 -133.6090
1.423142 50.236 -134.1048
1.433455 50.398 -134.6068
1.443843 50.560 -135.1149
1.454305 50.723 -135.6287
1.464844 50.885 -136.1472
1.475459 51.048 -136.6696
1.486150 51.210 -137.1946
1.496920 51.372 -137.7213
1.507767 51.533 -138.2489
1.518693 51.694 -138.7772
1.529698 51.853 -139.3058
1.540783 52.012 -139.8345
1.551948 52.170 -140.3635
1.563194 52.327 -140.8929
1.574521 52.484 -141.4226
1.585931 52.640 -141.9530
1.597423 52.795 -142.4842
1.608999 52.949 -143.0164
1.620658 53.103 -143.5500
1.632402 53.256 -144.0850
1.644232 53.409 -144.6220
1.656146 53.561 -145.1611
1.668147 53.712 -145.7027
1.680235 53.863 -146.2471
1.692411 54.014 -146.7946
1.704675 54.164 -147.3458
1.717028 54.314 -147.9009
1.729470 54.464 -148.4603
1.742003 54.613 -149.0246
1.754626 54.763 -149.5940
1.767341 54.912 -150.1691
1.780147 55.061 -150.7502
1.793047 55.210 -151.3376
1.806040 55.359 -151.9318
1.819128 55.507 -152.5328
1.832310 55.656 -153.1406
1.845587 55.803 -153.7549
1.858961 55.951 -154.3754
1.872432 56.097 -155.0013
1.886001 56.243 -155.6322
1.899667 56.388 -156.2672
1.913433 56.532 -156.9058
1.927299 56.675 -157.5474
1.941265 56.818 -158.1914
1.955332 56.959 -158.8373
1.969501 57.100 -159.4848
1.983773 57.240 -160.1335
1.998148 57.380 -160.7830
2.012627 57.518 -161.4331
2.027212 57.656 -162.0837
2.041902 57.793 -162.7345
2.056698 57.930 -163.3855
2.071602 58.066 -164.0367
2.086614 58.202 -164.6881
2.101734 58.336 -165.3398
2.116964 58.471 -165.9920
2.132304 58.605 -166.6449
2.147756 58.738 -167.2991
2.163320 58.872 -167.9551
2.178996 59.004 -168.6135
2.194786 59.136 -169.2753
2.210690 59.267 -169.9411
2.226710 59.398 -170.6118
2.242845 59.527 -171.2875
2.259098 59.656 -171.9682
2.275468 59.783 -172.6533
2.291957 59.909 -173.3422
2.308566 60.035 -174.0343
2.325295 60.159 -174.7287
2.342145 60.283 -175.4246
2.359117 60.405 -176.1212
2.376212 60.527 -176.8179
2.393431 60.647 -177.5141
2.410775 60.767 -178.2089
2.428244 60.886 -178.9021
2.445840 61.004 -179.5930
2.463564 61.122 179.7186
2.481416 61.238 179.0329
2.499397 61.354 178.3499
2.517509 61.469 177.6692
2.535752 61.583 176.9902
2.554127 61.697 176.3118
2.572635 61.809 175.6328
2.591277 61.921 174.9516
2.610055 62.031 174.2673
2.628968 62.140 173.5796
2.648019 62.248 172.8885
2.667208 62.355 172.1946
2.686535 62.460 171.4988
2.706003 62.565 170.8019
2.725612 62.668 170.1053
2.745363 62.770 169.4098
2.765257 62.871 168.7167
2.785295 62.971 168.0270
2.805478 63.070 167.3417
2.825808 63.168 166.6618
2.846285 63.265 165.9879
2.866910 63.362 165.3203
2.887685 63.457 164.6590
2.908611 63.552 164.0036
2.929688 63.646 163.3528
2.950917 63.738 162.7054
2.972301 63.830 162.0597
2.993839 63.920 161.4149
3.015534 64.008 160.7707
3.037386 64.096 160.1273
3.059396 64.182 159.4852
3.081565 64.267 158.8454
3.103896 64.351 158.2090
3.126388 64.434 157.5773
3.149043 64.516 156.9514
3.171862 64.597 156.3327
3.194847 64.678 155.7222
3.217998 64.758 155.1209
3.241317 64.837 154.5295
3.264805 64.916 153.9482
3.288463 64.994 153.3767
3.312293 65.072 152.8143
3.336295 65.148 152.2598
3.360471 65.224 151.7123
3.384822 65.298 151.1712
3.409350 65.372 150.6364
3.434056 65.445 150.1078
3.458940 65.517 149.5861
3.484005 65.589 149.0717
3.509252 65.660 148.5652
3.534681 65.731 148.0677
3.560295 65.802 147.5798
3.586094 65.874 147.1024
3.612081 65.945 146.6361
3.638255 66.017 146.1815
3.664620 66.089 145.7388
3.691175 66.162 145.3079
3.717923 66.234 144.8885
3.744864 66.307 144.4799
3.772001 66.379 144.0815
3.799335 66.452 143.6925
3.826866 66.525 143.3123
3.854597 66.598 142.9402
3.882529 66.673 142.5756
3.910664 66.748 142.2182
3.939002 66.825 141.8676
3.967546 66.902 141.5238
3.996296 66.981 141.1872
4.025255 67.062 140.8580
4.054423 67.144 140.5370
4.083804 67.227 140.2243
4.113396 67.312 139.9196
4.143204 67.399 139.6221
4.173227 67.486 139.3303
4.203468 67.575 139.0426
4.233928 67.666 138.7570
4.264609 67.758 138.4716
4.295512 67.851 138.1851
4.326639 67.947 137.8961
4.357992 68.044 137.6040
4.389572 68.142 137.3089
4.421380 68.243 137.0112
4.453419 68.346 136.7115
4.485691 68.450 136.4099
4.518196 68.556 136.1057
4.550936 68.663 135.7976
4.583914 68.772 135.4841
4.617131 68.883 135.1634
4.650589 68.994 134.8334
4.684289 69.106 134.4929
4.718233 69.219 134.1406
4.752424 69.332 133.7760
4.786862 69.446 133.3994
4.821549 69.561 133.0114
4.856488 69.677 132.6124
4.891680 69.794 132.2026
4.927127 69.910 131.7822
4.962831 70.027 131.3507
4.998794 70.144 130.9077
5.035017 70.260 130.4525
5.071503 70.376 129.9844
5.108253 70.490 129.5028
5.145270 70.604 129.0076
5.182555 70.717 128.4988
5.220110 70.829 127.9772
5.257937 70.939 127.4437
5.296038 71.049 126.8995
5.334415 71.157 126.3460
5.373071 71.264 125.7842
5.412006 71.369 125.2148
5.451224 71.471 124.6381
5.490725 71.572 124.0540
5.530514 71.671 123.4622
5.570590 71.767 122.8628
5.610957 71.861 122.2567
5.651616 71.953 121.6454
5.692570 72.042 121.0310
5.733821 72.129 120.4156
5.775370 72.214 119.8010
5.817221 72.296 119.1886
5.859375 72.375 118.5788
5.901834 72.453 117.9717
5.944602 72.527 117.3672
5.987679 72.599 116.7659
6.031068 72.669 116.1693
6.074771 72.736 115.5794
6.118792 72.801 114.9983
6.163131 72.864 114.4280
6.207792 72.926 113.8697
6.252776 72.985 113.3241
6.298086 73.043 112.7912
6.343725 73.099 112.2711
6.389694 73.154 111.7641
6.435996 73.207 111.2708
6.482634 73.260 110.7923
6.529610 73.313 110.3296
6.576926 73.365 109.8835
6.624585 73.417 109.4545
6.672590 73.469 109.0422
6.720942 73.521 108.6461
6.769645 73.574 108.2650
6.818700 73.628 107.8979
6.868111 73.682 107.5436
6.917881 73.739 107.2013
6.968010 73.797 106.8705
7.018504 73.857 106.5506
7.069362 73.919 106.2402
7.120590 73.983 105.9374
7.172189 74.049 105.6398
7.224161 74.117 105.3446
7.276511 74.188 105.0495
7.329239 74.261 104.7526
7.382350 74.336 104.4528
7.435845 74.413 104.1486
7.489729 74.493 103.8385
7.544002 74.575 103.5201
7.598669 74.658 103.1911
7.653732 74.742 102.8495
7.709194 74.828 102.4938
7.765058 74.915 102.1234
7.821327 75.002 101.7377
7.878004 75.090 101.3365
7.935091 75.178 100.9194
7.992592 75.265 100.4860
8.050510 75.352 100.0357
8.108847 75.438 99.5689
8.167607 75.522 99.0860
8.226793 75.605 98.5881
8.286408 75.687 98.0768
8.346454 75.766 97.5535
8.406936 75.843 97.0194
8.467856 75.918 96.4756
8.529218 75.990 95.9234
8.591024 76.059 95.3645
8.653278 76.126 94.8011
8.715983 76.189 94.2357
8.779143 76.251 93.6700
8.842760 76.309 93.1057
8.906839 76.365 92.5441
8.971381 76.418 91.9869
9.036392 76.469 91.4357
9.101873 76.517 90.8925
9.167829 76.564 90.3587
9.234263 76.609 89.8353
9.301178 76.652 89.3228
9.368578 76.694 88.8217
9.436467 76.736 88.3326
9.504847 76.776 87.8556
9.573723 76.817 87.3909
9.643099 76.857 86.9380
9.712976 76.897 86.4963
9.783361 76.938 86.0647
9.854255 76.979 85.6420
9.925663 77.021 85.2273
9.997588 77.064 84.8193
10.070035 77.108 84.4167
10.143007 77.153 84.0178
10.216507 77.199 83.6212
10.290540 77.246 83.2253
10.365109 77.294 82.8290
10.440219 77.342 82.4314
10.515873 77.391 82.0313
10.592076 77.441 81.6281
10.668830 77.491 81.2209
10.746141 77.541 80.8096
10.824012 77.591 80.3942
10.902447 77.641 79.9749
10.981451 77.691 79.5520
11.061027 77.740 79.1259
11.141180 77.788 78.6974
11.221913 77.836 78.2672
11.303232 77.884 77.8363
11.385140 77.930 77.4055
11.467641 77.977 76.9756
11.550741 78.022 76.5474
11.634442 78.067 76.1213
11.718750 78.112 75.6982
11.803669 78.157 75.2781
11.889203 78.202 74.8613
11.975357 78.246 74.4474
12.062136 78.291 74.0364
12.149543 78.337 73.6275
12.237583 78.383 73.2203
12.326262 78.429 72.8137
12.415583 78.476 72.4069
12.505552 78.523 71.9988
12.596172 78.571 71.5886
12.687449 78.619 71.1753
12.779387 78.667 70.7581
12.871992 78.716 70.3363
12.965268 78.764 69.9096
13.059220 78.813 69.4778
13.153852 78.860 69.0409
13.249170 78.907 68.5994
13.345179 78.953 68.1537
13.441884 78.999 67.7048
13.539289 79.043 67.2538
13.637401 79.085 66.8019
13.736223 79.127 66.3503
13.835761 79.167 65.9003
13.936021 79.206 65.4534
14.037007 79.243 65.0107
14.138725 79.280 64.5733
14.241180 79.316 64.1418
14.344377 79.351 63.7170
14.448323 79.386 63.2989
14.553021 79.420 62.8875
14.658478 79.454 62.4821
14.764700 79.489 62.0822
14.871691 79.523 61.6867
14.979457 79.558 61.2944
15.088005 79.593 60.9040
15.197339 79.628 60.5141
15.307465 79.664 60.1236
15.418389 79.699 59.7316
15.530117 79.734 59.3373
15.642655 79.768 58.9405
15.756008 79.801 58.5414
15.870182 79.834 58.1405
15.985184 79.865 57.7390
16.101019 79.894 57.3383
16.217694 79.923 56.9403
16.335214 79.949 56.5470
16.453586 79.974 56.1604
16.572815 79.998 55.7824
16.692909 80.020 55.4145
16.813872 80.043 55.0578
16.935713 80.065 54.7127
17.058436 80.087 54.3788
17.182048 80.110 54.0547
17.306556 80.134 53.7383
17.431967 80.160 53.4268
17.558286 80.188 53.1166
17.685521 80.217 52.8038
17.813677 80.248 52.4847
17.942762 80.280 52.1556
18.072783 80.314 51.8135
18.203746 80.347 51.4566
18.335658 80.380 51.0840
18.468526 80.411 50.6961
18.602356 80.441 50.2948
18.737156 80.468 49.8829
18.872934 80.493 49.4643
19.009695 80.515 49.0433
19.147447 80.534 48.6244
19.286197 80.551 48.2117
19.425953 80.566 47.8084
19.566721 80.580 47.4164
19.708510 80.593 47.0360
19.851326 80.607 46.6659
19.995177 80.622 46.3032
20.140070 80.639 45.9438
20.286013 80.657 45.5828
20.433014 80.676 45.2155
20.581080 80.697 44.8377
20.730219 80.717 44.4468
20.880439 80.737 44.0423
21.031747 80.754 43.6255
21.184152 80.770 43.2004
21.337661 80.782 42.7726
21.492282 80.791 42.3491
21.648024 80.796 41.9372
21.804895 80.800 41.5435
21.962902 80.802 41.1730
22.122054 80.803 40.8283
22.282360 80.807 40.5087
22.443827 80.813 40.2104
22.606464 80.823 39.9269
22.770280 80.836 39.6496
22.935283 80.855 39.3694
23.101481 80.876 39.0778
23.268884 80.900 38.7687
23.437500 80.925 38.4390
23.607338 80.949 38.0893
23.778406 80.972 37.7236
23.950714 80.991 37.3487
24.124271 81.008 36.9726
24.299086 81.022 36.6034
24.475167 81.033 36.2474
24.652524 81.044 35.9082
24.831166 81.055 35.5856
25.011103 81.067 35.2763
25.192344 81.082 34.9741
25.374898 81.098 34.6714
25.558775 81.116 34.3615
25.743984 81.135 34.0398
25.930536 81.152 33.7050
26.118439 81.168 33.3597
26.307704 81.180 33.0103
26.498341 81.188 32.6649
26.690359 81.194 32.3321
26.883768 81.197 32.0186
27.078579 81.199 31.7275
27.274801 81.203 31.4575
27.472446 81.208 31.2025
27.671522 81.217 30.9531
27.872042 81.229 30.6983
28.074014 81.243 30.4284
28.277450 81.257 30.1372
28.482360 81.270 29.8233
28.688755 81.280 29.4907
28.896645 81.286 29.1476
29.106042 81.287 28.8050
29.316957 81.285 28.4733
29.529400 81.279 28.1607
29.743382 81.273 27.8708
29.958915 81.267 27.6021
30.176009 81.263 27.3484
30.394677 81.262 27.1008
30.614929 81.263 26.8499
30.836778 81.266 26.5881
31.060234 81.270 26.3118
31.285309 81.272 26.0215
31.512015 81.273 25.7217
31.740364 81.271 25.4192
31.970368 81.267 25.1214
32.202039 81.261 24.8342
32.435388 81.255 24.5609
32.670428 81.249 24.3015
32.907171 81.244 24.0535
33.145630 81.241 23.8120
33.385817 81.240 23.5723
33.627745 81.240 23.3297
33.871425 81.241 23.0814
34.116871 81.243 22.8265
34.364096 81.244 22.5657
34.613113 81.244 22.3015
34.863934 81.242 22.0369
35.116572 81.240 21.7752
35.371041 81.237 21.5194
35.627354 81.233 21.2711
35.885525 81.229 21.0308
36.145566 81.225 20.7974
36.407492 81.222 20.5691
36.671316 81.219 20.3435
36.937051 81.216 20.1191
37.204712 81.214 19.8951
37.474313 81.211 19.6719
37.745867 81.208 19.4504
38.019389 81.204 19.2316
38.294893 81.201 19.0154
38.572394 81.198 18.8005
38.851905 81.196 18.5853
39.133442 81.194 18.3680
39.417019 81.192 18.1478
39.702651 81.190 17.9255
39.990353 81.187 17.7031
40.280140 81.183 17.4829
40.572026 81.180 17.2663
40.866028 81.176 17.0535
41.162160 81.174 16.8433
41.460438 81.171 16.6339
41.760877 81.169 16.4241
42.063494 81.167 16.2139
42.368303 81.165 16.0042
42.675322 81.163 15.7956
42.984565 81.161 15.5884
43.296048 81.158 15.3817
43.609789 81.155 15.1749
43.925804 81.151 14.9685
44.244108 81.146 14.7660
44.564719 81.139 14.5723
44.887654 81.131 14.3927
45.212928 81.122 14.2297
45.540560 81.115 14.0814
45.870565 81.109 13.9414
46.202962 81.105 13.8009
46.537768 81.102 13.6527
46.875000 81.100 13.4938
47.214676 81.096 13.3260
47.556813 81.091 13.1552
47.901429 81.084 12.9869
48.248542 81.076 12.8241
48.598171 81.069 12.6661
48.950334 81.062 12.5092
49.305048 81.056 12.3494
49.662333 81.050 12.1843
50.022206 81.043 12.0143
50.384688 81.036 11.8425
50.749796 81.028 11.6728
51.117550 81.019 11.5081
51.487969 81.011 11.3497
51.861072 81.003 11.1970
52.236879 80.995 11.0480
52.615409 80.989 10.9006
52.996681 80.983 10.7528
53.380717 80.977 10.6027
53.767536 80.972 10.4492
54.157158 80.965 10.2916
54.549603 80.958 10.1309
54.944892 80.949 9.9694
55.343045 80.939 9.8116
55.744084 80.927 9.6626
56.148028 80.914 9.5261
56.554900 80.901 9.4031
56.964720 80.890 9.2911
57.377510 80.880 9.1843
57.793291 80.873 9.0762
58.212085 80.868 8.9607
58.633914 80.864 8.8346
59.058799 80.860 8.6978
59.486764 80.857 8.5530
59.917829 80.853 8.4049
60.352019 80.849 8.2584
60.789354 80.845 8.1170
61.229859 80.841 7.9815
61.673556 80.838 7.8503
62.120468 80.836 7.7210
62.570618 80.833 7.5920
63.024031 80.829 7.4647
63.480729 80.824 7.3428
63.940736 80.816 7.2311
64.404077 80.807 7.1332
64.870776 80.796 7.0522
65.340856 80.785 6.9896
65.814343 80.774 6.9442
66.291261 80.765 6.9094
66.771635 80.758 6.8716
67.255489 80.755 6.8140
67.742850 80.752 6.7240
68.233743 80.748 6.6009
68.728193 80.739 6.4569
69.226226 80.728 6.3107
69.727867 80.715 6.1776
70.233144 80.703 6.0609
70.742083 80.695 5.9503
71.254709 80.691 5.8281
71.771050 80.690 5.6807
72.291132 80.689 5.5071
72.814984 80.686 5.3182
73.342631 80.681 5.1287
73.874102 80.675 4.9476
74.409424 80.667 4.7764
74.948626 80.659 4.6125
75.491734 80.651 4.4551
76.038779 80.641 4.3041
76.589787 80.630 4.1606
77.144788 80.619 4.0253
77.703811 80.607 3.8981
78.266885 80.594 3.7784
78.834039 80.583 3.6635
79.405303 80.572 3.5497
79.980706 80.562 3.4348
80.560280 80.552 3.3184
81.144053 80.542 3.2002
81.732056 80.533 3.0796
82.324320 80.525 2.9557
82.920876 80.515 2.8291
83.521755 80.505 2.7016
84.126988 80.495 2.5759
84.736607 80.483 2.4537
85.350643 80.470 2.3356
85.969129 80.456 2.2216
86.592097 80.441 2.1115
87.219579 80.426 2.0048
87.851608 80.410 1.9005
88.488217 80.394 1.7970
89.129439 80.378 1.6918
89.775308 80.362 1.5833
90.425856 80.345 1.4721
91.081119 80.328 1.3600
91.741131 80.311 1.2480
92.405925 80.293 1.1354
93.075536 80.275 1.0197
93.750000 80.255 0.9009
94.429351 80.233 0.7830
95.113625 80.207 0.6724
95.802858 80.179 0.5744
96.497085 80.146 0.4937
97.196342 80.110 0.4362
