* Measurement data measured by REW V5.30.4
* Source: EXCL: Headset (CX31993 HIFI AUDIO), MICROPHONE (Master Volume), 0, volume: 0.350
* Format: 256k Log Swept Sine, 1 sweep at -12.0 dBFS with no timing reference
* Dated: 01 19, 24 2:26:14 PM
* REW Settings:
*  C-weighting compensation: Off
*  Target level: 75.0 dB
* Note: ; 
* Measurement: Thieaudio Hype4 L
* Smoothing: 1/3 octave
* Frequency Step: 96 ppo
* Start Frequency: 20.141602 Hz
*
* Freq(Hz) SPL(dB) Phase(degrees)
20.141602 98.017 19.1837
20.287556 98.018 19.0778
20.434568 98.019 18.9512
20.582645 98.021 18.8050
20.731796 98.022 18.6401
20.882027 98.024 18.4577
21.033346 98.025 18.2591
21.185762 98.027 18.0455
21.339283 98.029 17.8182
21.493916 98.031 17.5784
21.649670 98.033 17.3273
21.806553 98.035 17.0662
21.964573 98.037 16.7961
22.123737 98.039 16.5181
22.284056 98.041 16.2331
22.445536 98.043 15.9420
22.608185 98.045 15.6457
22.772013 98.047 15.3448
22.937029 98.049 15.0400
23.103241 98.050 14.7319
23.270657 98.052 14.4209
23.439285 98.053 14.1076
23.609137 98.054 13.7923
23.780218 98.055 13.4754
23.952539 98.056 13.1570
24.126110 98.057 12.8376
24.300938 98.057 12.5172
24.477032 98.058 12.1961
24.654402 98.058 11.8745
24.833057 98.058 11.5523
25.013008 98.057 11.2299
25.194263 98.057 10.9072
25.376831 98.056 10.5843
25.560722 98.055 10.2613
25.745945 98.054 9.9383
25.932510 98.053 9.6153
26.120428 98.051 9.2923
26.309708 98.050 8.9694
26.500359 98.048 8.6466
26.692390 98.046 8.3240
26.885815 98.044 8.0017
27.080641 98.042 7.6796
27.276878 98.039 7.3578
27.474539 98.036 7.0363
27.673630 98.034 6.7152
27.874165 98.031 6.3945
28.076153 98.027 6.0743
28.279604 98.024 5.7544
28.484529 98.021 5.4350
28.690941 98.017 5.1161
28.898848 98.013 4.7977
29.108261 98.009 4.4798
29.319191 98.005 4.1623
29.531651 98.001 3.8454
29.745649 97.996 3.5289
29.961199 97.992 3.2129
30.178310 97.987 2.8974
30.396996 97.982 2.5822
30.617264 97.976 2.2675
30.839128 97.971 1.9531
31.062601 97.966 1.6389
31.287693 97.960 1.3250
31.514416 97.954 1.0112
31.742783 97.948 0.6975
31.972803 97.941 0.3839
32.204491 97.935 0.0703
32.437859 97.928 -0.2434
32.672916 97.921 -0.5570
32.909679 97.913 -0.8706
33.148155 97.906 -1.1842
33.388359 97.898 -1.4977
33.630306 97.890 -1.8111
33.874004 97.882 -2.1243
34.119469 97.873 -2.4371
34.366711 97.865 -2.7494
34.615746 97.856 -3.0613
34.866585 97.846 -3.3724
35.119244 97.837 -3.6827
35.373734 97.827 -3.9921
35.630066 97.817 -4.3004
35.888256 97.807 -4.6078
36.148315 97.796 -4.9140
36.410259 97.786 -5.2192
36.674103 97.775 -5.5234
36.939857 97.763 -5.8267
37.207539 97.752 -6.1291
37.477161 97.740 -6.4308
37.748737 97.728 -6.7320
38.022282 97.716 -7.0326
38.297806 97.703 -7.3329
38.575329 97.690 -7.6329
38.854862 97.677 -7.9328
39.136421 97.664 -8.2325
39.420021 97.650 -8.5322
39.705673 97.636 -8.8319
39.993397 97.622 -9.1315
40.283207 97.608 -9.4311
40.575115 97.593 -9.7307
40.869141 97.578 -10.0303
41.165295 97.563 -10.3299
41.463596 97.548 -10.6294
41.764057 97.532 -10.9289
42.066696 97.516 -11.2283
42.371529 97.500 -11.5276
42.678570 97.483 -11.8268
42.987835 97.467 -12.1259
43.299343 97.450 -12.4249
43.613110 97.432 -12.7237
43.929150 97.415 -13.0223
44.247478 97.397 -13.3207
44.568115 97.379 -13.6189
44.891075 97.361 -13.9167
45.216373 97.342 -14.2141
45.544029 97.323 -14.5112
45.874062 97.304 -14.8078
46.206486 97.285 -15.1038
46.541317 97.265 -15.3993
46.878574 97.245 -15.6940
47.218277 97.225 -15.9881
47.560440 97.204 -16.2813
47.905083 97.183 -16.5737
48.252224 97.162 -16.8653
48.601879 97.141 -17.1559
48.954067 97.119 -17.4457
49.308807 97.097 -17.7345
49.666119 97.075 -18.0224
50.026020 97.053 -18.3095
50.388531 97.030 -18.5958
50.753666 97.007 -18.8814
51.121449 96.984 -19.1662
51.491894 96.960 -19.4504
51.865025 96.937 -19.7341
52.240860 96.913 -20.0173
52.619419 96.889 -20.3002
53.000721 96.864 -20.5827
53.384785 96.839 -20.8650
53.771633 96.815 -21.1471
54.161285 96.789 -21.4292
54.553761 96.764 -21.7111
54.949081 96.738 -21.9930
55.347263 96.713 -22.2749
55.748333 96.686 -22.5567
56.152309 96.660 -22.8384
56.559212 96.633 -23.1199
56.969063 96.606 -23.4013
57.381886 96.579 -23.6823
57.797699 96.552 -23.9629
58.216526 96.524 -24.2430
58.638386 96.496 -24.5225
59.063305 96.467 -24.8013
59.491302 96.438 -25.0793
59.922401 96.409 -25.3565
60.356625 96.380 -25.6327
60.793995 96.350 -25.9080
61.234531 96.319 -26.1823
61.678261 96.288 -26.4556
62.125206 96.257 -26.7279
62.575390 96.225 -26.9991
63.028835 96.193 -27.2694
63.485569 96.161 -27.5386
63.945610 96.128 -27.8067
64.408989 96.094 -28.0738
64.875725 96.061 -28.3399
65.345840 96.026 -28.6049
65.819366 95.992 -28.8689
66.296318 95.956 -29.1319
66.776726 95.921 -29.3937
67.260620 95.885 -29.6545
67.748016 95.848 -29.9142
68.238945 95.811 -30.1728
68.733429 95.774 -30.4302
69.231499 95.736 -30.6864
69.733177 95.698 -30.9413
70.238495 95.659 -31.1949
70.747475 95.620 -31.4472
71.260139 95.581 -31.6981
71.776520 95.541 -31.9475
72.296638 95.501 -32.1955
72.820526 95.460 -32.4419
73.348213 95.419 -32.6868
73.879723 95.377 -32.9301
74.415085 95.335 -33.1717
74.954330 95.293 -33.4117
75.497482 95.250 -33.6500
76.044571 95.207 -33.8866
76.595619 95.163 -34.1215
77.150665 95.119 -34.3546
77.709732 95.075 -34.5860
78.272850 95.030 -34.8156
78.840050 94.985 -35.0434
79.411354 94.940 -35.2693
79.986801 94.894 -35.4934
80.566422 94.848 -35.7156
81.150238 94.801 -35.9359
81.738289 94.755 -36.1542
82.330597 94.707 -36.3704
82.927200 94.660 -36.5847
83.528122 94.612 -36.7968
84.133400 94.564 -37.0068
84.743065 94.515 -37.2145
85.357147 94.466 -37.4200
85.975677 94.417 -37.6232
86.598694 94.367 -37.8240
87.226227 94.317 -38.0223
87.858307 94.266 -38.2182
88.494965 94.215 -38.4115
89.136238 94.164 -38.6022
89.782158 94.113 -38.7902
90.432755 94.061 -38.9755
91.088066 94.009 -39.1581
91.748131 93.956 -39.3379
92.412979 93.903 -39.5149
93.082642 93.850 -39.6890
93.757156 93.796 -39.8602
94.436562 93.742 -40.0286
95.120888 93.688 -40.1939
95.810173 93.633 -40.3563
96.504456 93.578 -40.5155
97.203766 93.523 -40.6717
97.908142 93.467 -40.8248
98.617622 93.411 -40.9746
99.332245 93.355 -41.1212
100.052048 93.298 -41.2645
100.777069 93.241 -41.4044
101.507339 93.184 -41.5409
102.242905 93.126 -41.6739
102.983795 93.068 -41.8034
103.730057 93.010 -41.9293
104.481728 92.952 -42.0516
105.238846 92.893 -42.1702
106.001450 92.834 -42.2851
106.769577 92.775 -42.3962
107.543274 92.715 -42.5034
108.322578 92.656 -42.6068
109.107529 92.596 -42.7064
109.898170 92.536 -42.8020
110.694534 92.476 -42.8937
111.496674 92.415 -42.9815
112.304626 92.355 -43.0653
113.118431 92.294 -43.1451
113.938133 92.233 -43.2209
114.763779 92.172 -43.2927
115.595406 92.111 -43.3604
116.433060 92.049 -43.4241
117.276779 91.987 -43.4836
118.126617 91.926 -43.5391
118.982613 91.864 -43.5904
119.844810 91.802 -43.6375
120.713257 91.739 -43.6804
121.587997 91.677 -43.7191
122.469070 91.614 -43.7536
123.356529 91.552 -43.7840
124.250420 91.489 -43.8101
125.150787 91.426 -43.8319
126.057678 91.363 -43.8496
126.971146 91.300 -43.8630
127.891228 91.237 -43.8722
128.817978 91.174 -43.8771
129.751450 91.111 -43.8777
130.691681 91.047 -43.8740
131.638733 90.984 -43.8659
132.592636 90.921 -43.8534
133.553452 90.857 -43.8364
134.521240 90.794 -43.8149
135.496033 90.730 -43.7889
136.477890 90.667 -43.7582
137.466858 90.603 -43.7229
138.462997 90.540 -43.6828
139.466354 90.477 -43.6378
140.476990 90.413 -43.5881
141.494949 90.350 -43.5334
142.520279 90.287 -43.4739
143.553040 90.224 -43.4094
144.593277 90.160 -43.3399
145.641052 90.097 -43.2655
146.696426 90.034 -43.1861
147.759445 89.972 -43.1017
148.830170 89.909 -43.0123
149.908661 89.846 -42.9180
150.994965 89.784 -42.8187
152.089142 89.722 -42.7145
153.191238 89.660 -42.6053
154.301331 89.598 -42.4913
155.419464 89.536 -42.3723
156.545700 89.475 -42.2486
157.680099 89.414 -42.1200
158.822708 89.353 -41.9866
159.973602 89.292 -41.8485
161.132843 89.232 -41.7057
162.300476 89.172 -41.5582
163.476578 89.112 -41.4060
164.661194 89.052 -41.2493
165.854401 88.993 -41.0880
167.056244 88.935 -40.9222
168.266800 88.876 -40.7519
169.486130 88.818 -40.5770
170.714294 88.761 -40.3977
171.951355 88.704 -40.2140
173.197388 88.647 -40.0259
174.452454 88.591 -39.8335
175.716614 88.535 -39.6367
176.989929 88.479 -39.4357
178.272476 88.425 -39.2304
179.564316 88.370 -39.0209
180.865509 88.316 -38.8073
182.176132 88.263 -38.5895
183.496262 88.210 -38.3676
184.825958 88.158 -38.1416
186.165283 88.106 -37.9115
187.514313 88.054 -37.6773
188.873123 88.003 -37.4390
190.241776 87.953 -37.1965
191.620346 87.903 -36.9498
193.008911 87.854 -36.6987
194.407532 87.805 -36.4433
195.816284 87.757 -36.1834
197.235245 87.710 -35.9188
198.664490 87.663 -35.6494
200.104095 87.616 -35.3751
201.554138 87.571 -35.0957
203.014679 87.526 -34.8111
204.485809 87.481 -34.5210
205.967590 87.438 -34.2254
207.460114 87.395 -33.9242
208.963455 87.353 -33.6172
210.477692 87.312 -33.3044
212.002899 87.272 -32.9859
213.539154 87.233 -32.6616
215.086548 87.196 -32.3316
216.645157 87.159 -31.9961
218.215057 87.124 -31.6554
219.796341 87.090 -31.3097
221.389069 87.058 -30.9595
222.993347 87.027 -30.6054
224.609253 86.998 -30.2481
226.236862 86.971 -29.8882
227.876266 86.946 -29.5267
229.527557 86.922 -29.1646
231.190811 86.901 -28.8032
232.866119 86.881 -28.4436
234.553558 86.864 -28.0872
236.253235 86.849 -27.7353
237.965225 86.835 -27.3894
239.689621 86.824 -27.0508
241.426514 86.814 -26.7208
243.175995 86.806 -26.4005
244.938141 86.799 -26.0909
246.713058 86.793 -25.7928
248.500839 86.789 -25.5068
250.301575 86.785 -25.2330
252.115356 86.782 -24.9715
253.942291 86.779 -24.7221
255.782455 86.776 -24.4844
257.635956 86.773 -24.2575
259.502899 86.770 -24.0408
261.383362 86.767 -23.8332
263.277466 86.763 -23.6338
265.185272 86.759 -23.4414
267.106903 86.754 -23.2549
269.042480 86.748 -23.0735
270.992065 86.742 -22.8959
272.955780 86.735 -22.7214
274.933716 86.727 -22.5491
276.925995 86.719 -22.3782
278.932709 86.710 -22.2082
280.953979 86.701 -22.0384
282.989899 86.691 -21.8684
285.040558 86.681 -21.6979
287.106079 86.671 -21.5266
289.186554 86.660 -21.3542
291.282104 86.649 -21.1806
293.392853 86.638 -21.0058
295.518890 86.627 -20.8298
297.660339 86.616 -20.6524
299.817322 86.605 -20.4739
301.989929 86.594 -20.2942
304.178284 86.583 -20.1135
306.382477 86.573 -19.9319
308.602661 86.562 -19.7495
310.838928 86.552 -19.5665
313.091400 86.542 -19.3831
315.360199 86.532 -19.1992
317.645416 86.522 -19.0152
319.947205 86.513 -18.8311
322.265686 86.504 -18.6470
324.600952 86.496 -18.4631
326.953156 86.487 -18.2795
329.322388 86.479 -18.0962
331.708801 86.471 -17.9133
334.112488 86.464 -17.7310
336.533600 86.457 -17.5493
338.972260 86.450 -17.3683
341.428589 86.443 -17.1880
343.902710 86.437 -17.0084
346.394775 86.431 -16.8297
348.904907 86.425 -16.6519
351.433228 86.420 -16.4751
353.979858 86.415 -16.2992
356.544952 86.410 -16.1244
359.128632 86.405 -15.9507
361.731018 86.400 -15.7782
364.352264 86.396 -15.6068
366.992523 86.391 -15.4366
369.651917 86.387 -15.2676
372.330566 86.383 -15.1000
375.028625 86.379 -14.9335
377.746246 86.376 -14.7683
380.483551 86.372 -14.6044
383.240692 86.369 -14.4418
386.017822 86.366 -14.2803
388.815063 86.362 -14.1202
391.632568 86.359 -13.9612
394.470490 86.356 -13.8034
397.328979 86.353 -13.6469
400.208191 86.350 -13.4916
403.108276 86.347 -13.3375
406.029358 86.345 -13.1847
408.971619 86.342 -13.0331
411.935181 86.339 -12.8826
414.920227 86.336 -12.7334
417.926910 86.333 -12.5851
420.955383 86.330 -12.4377
424.005798 86.327 -12.2911
427.078308 86.324 -12.1451
430.173096 86.322 -11.9993
433.290314 86.319 -11.8536
436.430115 86.316 -11.7077
439.592682 86.313 -11.5614
442.778137 86.311 -11.4144
445.986694 86.308 -11.2665
449.218506 86.306 -11.1176
452.473724 86.303 -10.9675
455.752533 86.301 -10.8161
459.055115 86.300 -10.6636
462.381622 86.298 -10.5099
465.732239 86.297 -10.3551
469.107117 86.296 -10.1994
472.506470 86.295 -10.0430
475.930450 86.295 -9.8861
479.379242 86.295 -9.7288
482.853027 86.295 -9.5714
486.351990 86.296 -9.4143
489.876282 86.297 -9.2576
493.426117 86.298 -9.1018
497.001678 86.299 -8.9471
500.603149 86.301 -8.7939
504.230713 86.302 -8.6423
507.884583 86.304 -8.4926
511.564911 86.305 -8.3445
515.271912 86.307 -8.1981
519.005798 86.308 -8.0531
522.766724 86.308 -7.9090
526.554932 86.309 -7.7654
530.370544 86.309 -7.6216
534.213806 86.309 -7.4771
538.084961 86.308 -7.3312
541.984131 86.307 -7.1832
545.911560 86.306 -7.0324
549.867432 86.305 -6.8782
553.851990 86.303 -6.7201
557.865417 86.302 -6.5575
561.907959 86.300 -6.3901
565.979797 86.299 -6.2177
570.081116 86.298 -6.0401
574.212158 86.298 -5.8574
578.373108 86.298 -5.6700
582.564209 86.299 -5.4784
586.785706 86.301 -5.2830
591.037781 86.304 -5.0848
595.320679 86.307 -4.8846
599.634644 86.312 -4.6834
603.979858 86.317 -4.4820
608.356567 86.324 -4.2813
612.764954 86.331 -4.0820
617.205322 86.340 -3.8849
621.677856 86.348 -3.6902
626.182800 86.358 -3.4985
630.720398 86.368 -3.3097
635.290833 86.379 -3.1241
639.894409 86.390 -2.9415
644.531372 86.401 -2.7618
649.201904 86.412 -2.5848
653.906311 86.424 -2.4102
658.644775 86.436 -2.2376
663.417603 86.448 -2.0668
668.224976 86.460 -1.8974
673.067200 86.473 -1.7290
677.944519 86.485 -1.5614
682.857178 86.498 -1.3941
687.805420 86.511 -1.2269
692.789551 86.523 -1.0595
697.809814 86.537 -0.8916
702.866455 86.550 -0.7231
707.959717 86.563 -0.5537
713.089905 86.577 -0.3833
718.257263 86.591 -0.2118
723.462036 86.606 -0.0390
728.704529 86.621 0.1352
733.985046 86.636 0.3107
739.303833 86.652 0.4877
744.661133 86.668 0.6661
750.057251 86.684 0.8459
755.492493 86.702 1.0272
760.967102 86.719 1.2099
766.481384 86.738 1.3938
772.035645 86.757 1.5791
777.630127 86.776 1.7655
783.265137 86.797 1.9530
788.940979 86.818 2.1416
794.657959 86.839 2.3310
800.416382 86.862 2.5211
806.216553 86.885 2.7118
812.058716 86.909 2.9030
817.943237 86.935 3.0944
823.870361 86.961 3.2859
829.840454 86.987 3.4773
835.853821 87.015 3.6683
841.910767 87.044 3.8587
848.011597 87.074 4.0482
854.156616 87.105 4.2367
860.346191 87.137 4.4238
866.580627 87.170 4.6093
872.860229 87.204 4.7929
879.185364 87.239 4.9743
885.556274 87.275 5.1531
891.973389 87.312 5.3291
898.437012 87.350 5.5019
904.947449 87.390 5.6712
911.505066 87.430 5.8367
918.110229 87.472 5.9981
924.763245 87.515 6.1550
931.464478 87.558 6.3070
938.214233 87.603 6.4540
945.012939 87.649 6.5954
951.860901 87.696 6.7310
958.758484 87.744 6.8605
965.706055 87.793 6.9836
972.703979 87.842 7.0999
979.752563 87.893 7.2092
986.852234 87.944 7.3111
994.003357 87.996 7.4055
1001.206299 88.049 7.4920
1008.461426 88.103 7.5705
1015.769165 88.157 7.6407
1023.129822 88.211 7.7024
1030.543823 88.267 7.7556
1038.011597 88.323 7.8001
1045.533447 88.379 7.8358
1053.109863 88.435 7.8625
1060.741089 88.492 7.8804
1068.427612 88.549 7.8892
1076.169922 88.606 7.8892
1083.968262 88.664 7.8802
1091.823120 88.721 7.8624
1099.734863 88.779 7.8357
1107.703979 88.837 7.8005
1115.730835 88.894 7.7566
1123.815918 88.951 7.7044
1131.959595 89.009 7.6440
1140.162231 89.066 7.5755
1148.424316 89.123 7.4993
1156.746216 89.179 7.4154
1165.128418 89.235 7.3242
1173.571411 89.291 7.2260
1182.075562 89.347 7.1209
1190.641357 89.402 7.0093
1199.269287 89.457 6.8914
1207.959717 89.511 6.7677
1216.713135 89.565 6.6382
1225.529907 89.618 6.5034
1234.410645 89.671 6.3636
1243.355713 89.724 6.2191
1252.365601 89.776 6.0701
1261.440796 89.828 5.9169
1270.581665 89.879 5.7599
1279.788818 89.930 5.5992
1289.062744 89.980 5.4353
1298.403809 90.030 5.2683
1307.812622 90.080 5.0986
1317.289551 90.129 4.9262
1326.835205 90.178 4.7516
1336.449951 90.227 4.5748
1346.134399 90.275 4.3961
1355.889038 90.323 4.2158
1365.714355 90.371 4.0339
1375.610840 90.419 3.8506
1385.579102 90.466 3.6661
1395.619629 90.514 3.4806
1405.732910 90.561 3.2940
1415.919434 90.608 3.1067
1426.179810 90.656 2.9185
1436.514526 90.703 2.7297
1446.924072 90.750 2.5402
1457.409058 90.798 2.3501
1467.970093 90.845 2.1594
1478.607666 90.893 1.9682
1489.322266 90.941 1.7763
1500.114502 90.990 1.5838
1510.984985 91.038 1.3906
1521.934204 91.087 1.1966
1532.962769 91.137 1.0018
1544.071289 91.187 0.8060
1555.260254 91.237 0.6091
1566.530273 91.288 0.4111
1577.881958 91.340 0.2116
1589.315918 91.392 0.0106
1600.832764 91.445 -0.1922
1612.433105 91.498 -0.3969
1624.117432 91.553 -0.6037
1635.886475 91.608 -0.8129
1647.740723 91.663 -1.0247
1659.680908 91.720 -1.2394
1671.707642 91.777 -1.4572
1683.821533 91.836 -1.6785
1696.023193 91.895 -1.9036
1708.313232 91.955 -2.1327
1720.692383 92.016 -2.3663
1733.161255 92.078 -2.6046
1745.720459 92.141 -2.8480
1758.370728 92.206 -3.0969
1771.112549 92.271 -3.3517
1783.946777 92.337 -3.6127
1796.874023 92.404 -3.8804
1809.894897 92.472 -4.1551
1823.010132 92.541 -4.4372
1836.220459 92.612 -4.7273
1849.526489 92.683 -5.0255
1862.928955 92.755 -5.3325
1876.428467 92.829 -5.6487
1890.025879 92.903 -5.9744
1903.721802 92.979 -6.3101
1917.516968 93.055 -6.6564
1931.412109 93.133 -7.0136
1945.407959 93.211 -7.3822
1959.505127 93.290 -7.7627
1973.704468 93.371 -8.1555
1988.006714 93.452 -8.5612
2002.412598 93.534 -8.9803
2016.922852 93.617 -9.4132
2031.538330 93.700 -9.8605
2046.259644 93.785 -10.3227
2061.087646 93.870 -10.8002
2076.023193 93.956 -11.2937
2091.066895 94.042 -11.8036
2106.219727 94.128 -12.3305
2121.482178 94.215 -12.8748
2136.855225 94.303 -13.4371
2152.339844 94.391 -14.0179
2167.936523 94.478 -14.6177
2183.646240 94.566 -15.2368
2199.469727 94.654 -15.8758
2215.407959 94.741 -16.5351
2231.461670 94.828 -17.2150
2247.631836 94.915 -17.9159
2263.919189 95.001 -18.6382
2280.324463 95.086 -19.3819
2296.848633 95.171 -20.1474
2313.492432 95.254 -20.9347
2330.256836 95.336 -21.7441
2347.142822 95.417 -22.5754
2364.151123 95.496 -23.4288
2381.282715 95.573 -24.3040
2398.538574 95.649 -25.2009
2415.919434 95.722 -26.1193
2433.426270 95.793 -27.0588
2451.059814 95.862 -28.0191
2468.821289 95.927 -28.9995
2486.711426 95.991 -29.9997
2504.731201 96.051 -31.0188
2522.881592 96.107 -32.0562
2541.163330 96.161 -33.1108
2559.577637 96.211 -34.1819
2578.125488 96.257 -35.2683
2596.807617 96.299 -36.3689
2615.625244 96.338 -37.4823
2634.579102 96.372 -38.6073
2653.670410 96.402 -39.7425
2672.899902 96.428 -40.8861
2692.268799 96.449 -42.0368
2711.778076 96.466 -43.1929
2731.428711 96.479 -44.3526
2751.221680 96.487 -45.5144
2771.158203 96.490 -46.6764
2791.239258 96.489 -47.8371
2811.465820 96.484 -48.9946
2831.838867 96.474 -50.1475
2852.359619 96.461 -51.2942
2873.029053 96.443 -52.4332
2893.848145 96.422 -53.5631
2914.818115 96.397 -54.6826
2935.940186 96.368 -55.7906
2957.215332 96.336 -56.8860
2978.644531 96.301 -57.9678
3000.229004 96.263 -59.0352
3021.969971 96.222 -60.0874
3043.868408 96.179 -61.1238
3065.925537 96.134 -62.1439
3088.142578 96.087 -63.1473
3110.520508 96.037 -64.1335
3133.060547 95.987 -65.1024
3155.763916 95.934 -66.0538
3178.631836 95.881 -66.9876
3201.665527 95.827 -67.9037
3224.866211 95.771 -68.8023
3248.234863 95.715 -69.6833
3271.772949 95.659 -70.5470
3295.481445 95.603 -71.3935
3319.361816 95.546 -72.2232
3343.415283 95.490 -73.0364
3367.643066 95.433 -73.8335
3392.046387 95.378 -74.6149
3416.626465 95.323 -75.3812
3441.384766 95.268 -76.1329
3466.322510 95.215 -76.8706
3491.440918 95.162 -77.5949
3516.741455 95.111 -78.3066
3542.225098 95.061 -79.0065
3567.893555 95.013 -79.6954
3593.748047 94.966 -80.3741
3619.789795 94.921 -81.0436
3646.020264 94.878 -81.7049
3672.440918 94.836 -82.3590
3699.052979 94.797 -83.0069
3725.857910 94.760 -83.6498
3752.856934 94.725 -84.2888
3780.051758 94.691 -84.9250
3807.443604 94.661 -85.5598
3835.033936 94.632 -86.1942
3862.824219 94.606 -86.8296
3890.815918 94.582 -87.4672
3919.010254 94.560 -88.1082
3947.408936 94.541 -88.7540
3976.013428 94.523 -89.4057
4004.825195 94.508 -90.0646
4033.845703 94.495 -90.7319
4063.076660 94.484 -91.4088
4092.519287 94.474 -92.0964
4122.175293 94.467 -92.7957
4152.046387 94.461 -93.5078
4182.133789 94.456 -94.2336
