* Measurement data measured by REW V5.30.4
* Source: EXCL: Headset (CX31993 HIFI AUDIO), MICROPHONE (Master Volume), 0, volume: 0.350
* Format: 256k Log Swept Sine, 1 sweep at -12.0 dBFS with no timing reference
* Dated: 01 19, 24 2:29:23 PM
* REW Settings:
*  C-weighting compensation: Off
*  Target level: 75.0 dB
* Note: ; 
* Measurement: Thieaudio Hype4 R
* Smoothing: 1/3 octave
* Frequency Step: 96 ppo
* Start Frequency: 20.141602 Hz
*
* Freq(Hz) SPL(dB) Phase(degrees)
20.141602 98.004 19.2178
20.287556 98.004 19.1150
20.434568 98.004 18.9922
20.582645 98.004 18.8504
20.731796 98.004 18.6907
20.882027 98.005 18.5140
21.033346 98.005 18.3214
21.185762 98.006 18.1140
21.339283 98.007 17.8928
21.493916 98.008 17.6586
21.649670 98.010 17.4124
21.806553 98.012 17.1549
21.964573 98.014 16.8868
22.123737 98.017 16.6088
22.284056 98.019 16.3215
22.445536 98.022 16.0256
22.608185 98.024 15.7215
22.772013 98.027 15.4099
22.937029 98.029 15.0913
23.103241 98.031 14.7663
23.270657 98.033 14.4354
23.439285 98.035 14.0993
23.609137 98.036 13.7585
23.780218 98.037 13.4138
23.952539 98.037 13.0657
24.126110 98.037 12.7149
24.300938 98.036 12.3621
24.477032 98.035 12.0081
24.654402 98.034 11.6535
24.833057 98.032 11.2990
25.013008 98.029 10.9454
25.194263 98.026 10.5932
25.376831 98.023 10.2431
25.560722 98.019 9.8955
25.745945 98.015 9.5511
25.932510 98.011 9.2100
26.120428 98.007 8.8727
26.309708 98.002 8.5394
26.500359 97.997 8.2101
26.692390 97.992 7.8850
26.885815 97.987 7.5640
27.080641 97.982 7.2469
27.276878 97.977 6.9337
27.474539 97.972 6.6241
27.673630 97.967 6.3179
27.874165 97.962 6.0148
28.076153 97.957 5.7143
28.279604 97.953 5.4163
28.484529 97.948 5.1203
28.690941 97.943 4.8261
28.898848 97.939 4.5335
29.108261 97.934 4.2421
29.319191 97.930 3.9519
29.531651 97.925 3.6627
29.745649 97.921 3.3745
29.961199 97.916 3.0870
30.178310 97.912 2.8003
30.396996 97.907 2.5144
30.617264 97.902 2.2289
30.839128 97.897 1.9440
31.062601 97.892 1.6594
31.287693 97.886 1.3750
31.514416 97.880 1.0908
31.742783 97.875 0.8065
31.972803 97.868 0.5221
32.204491 97.862 0.2375
32.437859 97.855 -0.0474
32.672916 97.848 -0.3328
32.909679 97.841 -0.6188
33.148155 97.833 -0.9056
33.388359 97.826 -1.1934
33.630306 97.818 -1.4825
33.874004 97.809 -1.7731
34.119469 97.801 -2.0654
34.366711 97.792 -2.3597
34.615746 97.784 -2.6560
34.866585 97.774 -2.9544
35.119244 97.765 -3.2550
35.373734 97.756 -3.5578
35.630066 97.746 -3.8627
35.888256 97.736 -4.1696
36.148315 97.726 -4.4785
36.410259 97.715 -4.7891
36.674103 97.705 -5.1014
36.939857 97.694 -5.4150
37.207539 97.683 -5.7298
37.477161 97.673 -6.0456
37.748737 97.662 -6.3621
38.022282 97.650 -6.6790
38.297806 97.639 -6.9960
38.575329 97.628 -7.3128
38.854862 97.616 -7.6292
39.136421 97.604 -7.9448
39.420021 97.591 -8.2596
39.705673 97.578 -8.5733
39.993397 97.565 -8.8858
40.283207 97.551 -9.1971
40.575115 97.537 -9.5069
40.869141 97.522 -9.8153
41.165295 97.507 -10.1221
41.463596 97.492 -10.4274
41.764057 97.476 -10.7309
42.066696 97.460 -11.0327
42.371529 97.443 -11.3327
42.678570 97.427 -11.6310
42.987835 97.410 -11.9274
43.299343 97.392 -12.2223
43.613110 97.375 -12.5158
43.929150 97.357 -12.8083
44.247478 97.339 -13.1000
44.568115 97.321 -13.3915
44.891075 97.302 -13.6831
45.216373 97.284 -13.9751
45.544029 97.265 -14.2681
45.874062 97.246 -14.5621
46.206486 97.227 -14.8575
46.541317 97.207 -15.1542
46.878574 97.187 -15.4524
47.218277 97.167 -15.7519
47.560440 97.146 -16.0524
47.905083 97.125 -16.3539
48.252224 97.103 -16.6559
48.601879 97.080 -16.9581
48.954067 97.057 -17.2601
49.308807 97.034 -17.5615
49.666119 97.010 -17.8619
50.026020 96.985 -18.1608
50.388531 96.960 -18.4579
50.753666 96.934 -18.7528
51.121449 96.908 -19.0453
51.491894 96.881 -19.3352
51.865025 96.855 -19.6224
52.240860 96.828 -19.9070
52.619419 96.801 -20.1892
53.000721 96.773 -20.4692
53.384785 96.746 -20.7472
53.771633 96.719 -21.0238
54.161285 96.691 -21.2991
54.553761 96.664 -21.5737
54.949081 96.637 -21.8479
55.347263 96.609 -22.1219
55.748333 96.581 -22.3961
56.152309 96.554 -22.6704
56.559212 96.526 -22.9452
56.969063 96.498 -23.2203
57.381886 96.470 -23.4957
57.797699 96.441 -23.7713
58.216526 96.412 -24.0471
58.638386 96.383 -24.3228
59.063305 96.354 -24.5982
59.491302 96.325 -24.8733
59.922401 96.295 -25.1479
60.356625 96.265 -25.4217
60.793995 96.235 -25.6945
61.234531 96.205 -25.9663
61.678261 96.175 -26.2367
62.125206 96.144 -26.5055
62.575390 96.113 -26.7727
63.028835 96.082 -27.0380
63.485569 96.051 -27.3012
63.945610 96.019 -27.5624
64.408989 95.987 -27.8213
64.875725 95.955 -28.0781
65.345840 95.922 -28.3328
65.819366 95.889 -28.5853
66.296318 95.855 -28.8359
66.776726 95.821 -29.0846
67.260620 95.786 -29.3317
67.748016 95.751 -29.5773
68.238945 95.715 -29.8216
68.733429 95.678 -30.0647
69.231499 95.640 -30.3067
69.733177 95.602 -30.5478
70.238495 95.563 -30.7879
70.747475 95.524 -31.0270
71.260139 95.484 -31.2650
71.776520 95.443 -31.5018
72.296638 95.402 -31.7372
72.820526 95.360 -31.9711
73.348213 95.319 -32.2032
73.879723 95.276 -32.4333
74.415085 95.234 -32.6614
74.954330 95.191 -32.8874
75.497482 95.148 -33.1111
76.044571 95.104 -33.3328
76.595619 95.060 -33.5524
77.150665 95.016 -33.7701
77.709732 94.971 -33.9859
78.272850 94.926 -34.2001
78.840050 94.881 -34.4127
79.411354 94.835 -34.6239
79.986801 94.788 -34.8336
80.566422 94.741 -35.0420
81.150238 94.694 -35.2489
81.738289 94.646 -35.4543
82.330597 94.597 -35.6582
82.927200 94.549 -35.8603
83.528122 94.500 -36.0604
84.133400 94.450 -36.2585
84.743065 94.400 -36.4543
85.357147 94.350 -36.6477
85.975677 94.300 -36.8386
86.598694 94.249 -37.0269
87.226227 94.199 -37.2126
87.858307 94.148 -37.3956
88.494965 94.096 -37.5760
89.136238 94.045 -37.7538
89.782158 93.993 -37.9290
90.432755 93.942 -38.1015
91.088066 93.890 -38.2714
91.748131 93.838 -38.4385
92.412979 93.786 -38.6029
93.082642 93.734 -38.7643
93.757156 93.681 -38.9228
94.436562 93.629 -39.0782
95.120888 93.576 -39.2304
95.810173 93.523 -39.3794
96.504456 93.470 -39.5251
97.203766 93.417 -39.6676
97.908142 93.364 -39.8068
98.617622 93.311 -39.9428
99.332245 93.257 -40.0756
100.052048 93.203 -40.2053
100.777069 93.149 -40.3318
101.507339 93.095 -40.4553
102.242905 93.040 -40.5758
102.983795 92.985 -40.6933
103.730057 92.930 -40.8080
104.481728 92.875 -40.9200
105.238846 92.819 -41.0292
106.001450 92.763 -41.1358
106.769577 92.707 -41.2397
107.543274 92.650 -41.3409
108.322578 92.594 -41.4393
109.107529 92.537 -41.5348
109.898170 92.479 -41.6272
110.694534 92.421 -41.7162
111.496674 92.363 -41.8016
112.304626 92.305 -41.8831
113.118431 92.246 -41.9605
113.938133 92.187 -42.0334
114.763779 92.127 -42.1014
115.595406 92.067 -42.1643
116.433060 92.007 -42.2219
117.276779 91.946 -42.2738
118.126617 91.885 -42.3198
118.982613 91.824 -42.3598
119.844810 91.763 -42.3935
120.713257 91.701 -42.4208
121.587997 91.640 -42.4417
122.469070 91.578 -42.4560
123.356529 91.516 -42.4636
124.250420 91.453 -42.4645
125.150787 91.391 -42.4588
126.057678 91.329 -42.4463
126.971146 91.266 -42.4273
127.891228 91.204 -42.4019
128.817978 91.141 -42.3702
129.751450 91.079 -42.3325
130.691681 91.016 -42.2892
131.638733 90.954 -42.2404
132.592636 90.892 -42.1868
133.553452 90.830 -42.1285
134.521240 90.769 -42.0662
135.496033 90.707 -42.0000
136.477890 90.646 -41.9304
137.466858 90.586 -41.8577
138.462997 90.526 -41.7821
139.466354 90.466 -41.7039
140.476990 90.407 -41.6231
141.494949 90.348 -41.5399
142.520279 90.289 -41.4545
143.553040 90.231 -41.3668
144.593277 90.174 -41.2768
145.641052 90.117 -41.1846
146.696426 90.060 -41.0901
147.759445 90.004 -40.9932
148.830170 89.948 -40.8937
149.908661 89.893 -40.7916
150.994965 89.838 -40.6867
152.089142 89.784 -40.5790
153.191238 89.730 -40.4681
154.301331 89.676 -40.3541
155.419464 89.623 -40.2367
156.545700 89.570 -40.1159
157.680099 89.517 -39.9915
158.822708 89.465 -39.8635
159.973602 89.413 -39.7319
161.132843 89.361 -39.5967
162.300476 89.310 -39.4578
163.476578 89.260 -39.3153
164.661194 89.209 -39.1694
165.854401 89.159 -39.0201
167.056244 89.110 -38.8675
168.266800 89.061 -38.7118
169.486130 89.012 -38.5531
170.714294 88.964 -38.3915
171.951355 88.916 -38.2271
173.197388 88.868 -38.0601
174.452454 88.821 -37.8906
175.716614 88.774 -37.7186
176.989929 88.728 -37.5443
178.272476 88.682 -37.3675
179.564316 88.636 -37.1885
180.865509 88.591 -37.0072
182.176132 88.546 -36.8235
183.496262 88.501 -36.6375
184.825958 88.456 -36.4490
186.165283 88.412 -36.2581
187.514313 88.368 -36.0647
188.873123 88.325 -35.8685
190.241776 88.282 -35.6696
191.620346 88.239 -35.4677
193.008911 88.197 -35.2629
194.407532 88.154 -35.0548
195.816284 88.113 -34.8435
197.235245 88.071 -34.6288
198.664490 88.031 -34.4104
200.104095 87.990 -34.1885
201.554138 87.950 -33.9627
203.014679 87.910 -33.7330
204.485809 87.871 -33.4993
205.967590 87.833 -33.2615
207.460114 87.795 -33.0195
208.963455 87.758 -32.7734
210.477692 87.721 -32.5229
212.002899 87.685 -32.2682
213.539154 87.650 -32.0093
215.086548 87.615 -31.7461
216.645157 87.582 -31.4788
218.215057 87.549 -31.2075
219.796341 87.517 -30.9324
221.389069 87.487 -30.6538
222.993347 87.457 -30.3719
224.609253 87.429 -30.0871
226.236862 87.402 -29.8000
227.876266 87.376 -29.5110
229.527557 87.352 -29.2208
231.190811 87.329 -28.9302
232.866119 87.308 -28.6399
234.553558 87.288 -28.3508
236.253235 87.269 -28.0639
237.965225 87.252 -27.7800
239.689621 87.237 -27.5002
241.426514 87.223 -27.2254
243.175995 87.210 -26.9564
244.938141 87.198 -26.6941
246.713058 87.187 -26.4392
248.500839 87.178 -26.1922
250.301575 87.169 -25.9535
252.115356 87.160 -25.7234
253.942291 87.153 -25.5019
255.782455 87.145 -25.2890
257.635956 87.138 -25.0842
259.502899 87.131 -24.8874
261.383362 87.124 -24.6978
263.277466 87.117 -24.5149
265.185272 87.110 -24.3381
267.106903 87.102 -24.1665
269.042480 87.094 -23.9994
270.992065 87.085 -23.8361
272.955780 87.076 -23.6759
274.933716 87.067 -23.5182
276.925995 87.057 -23.3623
278.932709 87.047 -23.2077
280.953979 87.037 -23.0539
282.989899 87.026 -22.9005
285.040558 87.015 -22.7473
287.106079 87.004 -22.5939
289.186554 86.992 -22.4401
291.282104 86.981 -22.2858
293.392853 86.969 -22.1310
295.518890 86.958 -21.9754
297.660339 86.946 -21.8192
299.817322 86.935 -21.6623
301.989929 86.923 -21.5048
304.178284 86.912 -21.3467
306.382477 86.901 -21.1882
308.602661 86.890 -21.0292
310.838928 86.880 -20.8700
313.091400 86.869 -20.7107
315.360199 86.859 -20.5512
317.645416 86.849 -20.3918
319.947205 86.839 -20.2324
322.265686 86.830 -20.0732
324.600952 86.820 -19.9143
326.953156 86.811 -19.7555
329.322388 86.802 -19.5971
331.708801 86.794 -19.4391
334.112488 86.785 -19.2813
336.533600 86.777 -19.1240
338.972260 86.769 -18.9671
341.428589 86.761 -18.8106
343.902710 86.753 -18.6546
346.394775 86.745 -18.4990
348.904907 86.737 -18.3438
351.433228 86.730 -18.1892
353.979858 86.723 -18.0350
356.544952 86.716 -17.8812
359.128632 86.709 -17.7280
361.731018 86.702 -17.5751
364.352264 86.695 -17.4227
366.992523 86.688 -17.2708
369.651917 86.682 -17.1192
372.330566 86.676 -16.9680
375.028625 86.670 -16.8172
377.746246 86.664 -16.6668
380.483551 86.658 -16.5167
383.240692 86.653 -16.3669
386.017822 86.647 -16.2174
388.815063 86.642 -16.0683
391.632568 86.638 -15.9194
394.470490 86.633 -15.7708
397.328979 86.629 -15.6226
400.208191 86.624 -15.4747
403.108276 86.620 -15.3272
406.029358 86.617 -15.1802
408.971619 86.613 -15.0337
411.935181 86.610 -14.8879
414.920227 86.607 -14.7428
417.926910 86.605 -14.5986
420.955383 86.602 -14.4553
424.005798 86.600 -14.3132
427.078308 86.598 -14.1723
430.173096 86.596 -14.0327
433.290314 86.595 -13.8946
436.430115 86.593 -13.7581
439.592682 86.592 -13.6233
442.778137 86.591 -13.4901
445.986694 86.589 -13.3586
449.218506 86.588 -13.2288
452.473724 86.587 -13.1005
455.752533 86.586 -12.9737
459.055115 86.585 -12.8483
462.381622 86.583 -12.7239
465.732239 86.582 -12.6004
469.107117 86.580 -12.4775
472.506470 86.579 -12.3549
475.930450 86.577 -12.2324
479.379242 86.575 -12.1096
482.853027 86.573 -11.9863
486.351990 86.571 -11.8623
489.876282 86.569 -11.7374
493.426117 86.567 -11.6113
497.001678 86.565 -11.4840
500.603149 86.563 -11.3553
504.230713 86.561 -11.2252
507.884583 86.559 -11.0936
511.564911 86.558 -10.9607
515.271912 86.556 -10.8264
519.005798 86.555 -10.6908
522.766724 86.555 -10.5543
526.554932 86.554 -10.4170
530.370544 86.554 -10.2791
534.213806 86.554 -10.1410
538.084961 86.555 -10.0028
541.984131 86.556 -9.8648
545.911560 86.557 -9.7272
549.867432 86.558 -9.5900
553.851990 86.560 -9.4534
557.865417 86.562 -9.3174
561.907959 86.564 -9.1819
565.979797 86.566 -9.0469
570.081116 86.569 -8.9122
574.212158 86.571 -8.7779
578.373108 86.574 -8.6436
582.564209 86.577 -8.5093
586.785706 86.580 -8.3747
591.037781 86.582 -8.2397
595.320679 86.585 -8.1040
599.634644 86.588 -7.9675
603.979858 86.592 -7.8299
608.356567 86.595 -7.6911
612.764954 86.598 -7.5508
617.205322 86.601 -7.4089
621.677856 86.605 -7.2651
626.182800 86.609 -7.1192
630.720398 86.613 -6.9712
635.290833 86.617 -6.8209
639.894409 86.621 -6.6680
644.531372 86.626 -6.5124
649.201904 86.631 -6.3541
653.906311 86.636 -6.1929
658.644775 86.642 -6.0287
663.417603 86.648 -5.8615
668.224976 86.655 -5.6911
673.067200 86.662 -5.5177
677.944519 86.670 -5.3412
682.857178 86.679 -5.1618
687.805420 86.688 -4.9794
692.789551 86.698 -4.7944
697.809814 86.710 -4.6068
702.866455 86.722 -4.4171
707.959717 86.735 -4.2256
713.089905 86.749 -4.0327
718.257263 86.764 -3.8389
723.462036 86.781 -3.6446
728.704529 86.798 -3.4506
733.985046 86.817 -3.2575
739.303833 86.837 -3.0658
744.661133 86.858 -2.8763
750.057251 86.880 -2.6894
755.492493 86.903 -2.5059
760.967102 86.927 -2.3262
766.481384 86.952 -2.1507
772.035645 86.978 -1.9797
777.630127 87.004 -1.8133
783.265137 87.031 -1.6515
788.940979 87.059 -1.4944
794.657959 87.087 -1.3416
800.416382 87.115 -1.1928
806.216553 87.144 -1.0478
812.058716 87.174 -0.9060
817.943237 87.203 -0.7672
823.870361 87.233 -0.6308
829.840454 87.264 -0.4965
835.853821 87.295 -0.3639
841.910767 87.326 -0.2327
848.011597 87.358 -0.1028
854.156616 87.390 0.0260
860.346191 87.423 0.1538
866.580627 87.457 0.2807
872.860229 87.491 0.4064
879.185364 87.526 0.5310
885.556274 87.562 0.6542
891.973389 87.599 0.7758
898.437012 87.637 0.8955
904.947449 87.676 1.0130
911.505066 87.715 1.1280
918.110229 87.756 1.2400
924.763245 87.798 1.3487
931.464478 87.840 1.4537
938.214233 87.884 1.5546
945.012939 87.929 1.6510
951.860901 87.974 1.7424
958.758484 88.021 1.8285
965.706055 88.069 1.9089
972.703979 88.117 1.9831
979.752563 88.167 2.0509
986.852234 88.217 2.1117
994.003357 88.269 2.1655
1001.206299 88.321 2.2117
1008.461426 88.373 2.2502
1015.769165 88.427 2.2806
1023.129822 88.481 2.3028
1030.543823 88.536 2.3165
1038.011597 88.591 2.3216
1045.533447 88.647 2.3179
1053.109863 88.703 2.3052
1060.741089 88.760 2.2836
1068.427612 88.817 2.2529
1076.169922 88.874 2.2130
1083.968262 88.932 2.1641
1091.823120 88.989 2.1062
1099.734863 89.047 2.0392
1107.703979 89.105 1.9633
1115.730835 89.163 1.8786
1123.815918 89.220 1.7851
1131.959595 89.278 1.6832
1140.162231 89.336 1.5729
1148.424316 89.393 1.4544
1156.746216 89.450 1.3279
1165.128418 89.507 1.1937
1173.571411 89.564 1.0521
1182.075562 89.620 0.9032
1190.641357 89.676 0.7473
1199.269287 89.732 0.5847
1207.959717 89.787 0.4157
1216.713135 89.842 0.2406
1225.529907 89.897 0.0597
1234.410645 89.951 -0.1268
1243.355713 90.005 -0.3185
1252.365601 90.058 -0.5152
1261.440796 90.111 -0.7166
1270.581665 90.163 -0.9224
1279.788818 90.216 -1.1323
1289.062744 90.267 -1.3461
1298.403809 90.319 -1.5635
1307.812622 90.370 -1.7843
1317.289551 90.421 -2.0082
1326.835205 90.471 -2.2350
1336.449951 90.521 -2.4646
1346.134399 90.571 -2.6967
1355.889038 90.621 -2.9312
1365.714355 90.671 -3.1679
1375.610840 90.720 -3.4067
1385.579102 90.770 -3.6474
1395.619629 90.819 -3.8899
1405.732910 90.868 -4.1342
1415.919434 90.918 -4.3802
1426.179810 90.967 -4.6278
1436.514526 91.016 -4.8769
1446.924072 91.066 -5.1277
1457.409058 91.116 -5.3800
1467.970093 91.165 -5.6339
1478.607666 91.216 -5.8895
1489.322266 91.266 -6.1467
1500.114502 91.317 -6.4057
1510.984985 91.368 -6.6665
1521.934204 91.420 -6.9292
1532.962769 91.472 -7.1940
1544.071289 91.524 -7.4610
1555.260254 91.577 -7.7303
1566.530273 91.630 -8.0020
1577.881958 91.685 -8.2764
1589.315918 91.739 -8.5537
1600.832764 91.794 -8.8340
1612.433105 91.850 -9.1175
1624.117432 91.907 -9.4045
1635.886475 91.964 -9.6951
1647.740723 92.022 -9.9897
1659.680908 92.081 -10.2885
1671.707642 92.140 -10.5917
1683.821533 92.201 -10.8997
1696.023193 92.262 -11.2126
1708.313232 92.323 -11.5309
1720.692383 92.386 -11.8548
1733.161255 92.450 -12.1845
1745.720459 92.514 -12.5206
1758.370728 92.579 -12.8632
1771.112549 92.645 -13.2127
1783.946777 92.712 -13.5695
1796.874023 92.780 -13.9338
1809.894897 92.849 -14.3062
1823.010132 92.919 -14.6869
1836.220459 92.989 -15.0764
1849.526489 93.061 -15.4750
1862.928955 93.133 -15.8832
1876.428467 93.206 -16.3014
1890.025879 93.280 -16.7300
1903.721802 93.355 -17.1694
1917.516968 93.431 -17.6202
1931.412109 93.507 -18.0827
1945.407959 93.585 -18.5575
1959.505127 93.663 -19.0451
1973.704468 93.742 -19.5460
1988.006714 93.822 -20.0606
2002.412598 93.902 -20.5895
2016.922852 93.983 -21.1332
2031.538330 94.065 -21.6922
2046.259644 94.147 -22.2671
2061.087646 94.230 -22.8583
2076.023193 94.313 -23.4664
2091.066895 94.397 -24.0918
2106.219727 94.481 -24.7351
2121.482178 94.564 -25.3967
2136.855225 94.648 -26.0770
2152.339844 94.732 -26.7764
2167.936523 94.816 -27.4954
2183.646240 94.900 -28.2341
2199.469727 94.983 -28.9930
2215.407959 95.065 -29.7721
2231.461670 95.147 -30.5719
2247.631836 95.229 -31.3922
2263.919189 95.309 -32.2334
2280.324463 95.388 -33.0953
2296.848633 95.466 -33.9781
2313.492432 95.543 -34.8815
2330.256836 95.619 -35.8056
2347.142822 95.692 -36.7503
2364.151123 95.764 -37.7152
2381.282715 95.834 -38.7002
2398.538574 95.903 -39.7051
2415.919434 95.969 -40.7295
2433.426270 96.032 -41.7730
2451.059814 96.094 -42.8353
2468.821289 96.152 -43.9159
2486.711426 96.208 -45.0143
2504.731201 96.261 -46.1300
2522.881592 96.311 -47.2622
2541.163330 96.358 -48.4103
2559.577637 96.401 -49.5735
2578.125488 96.441 -50.7510
2596.807617 96.478 -51.9418
2615.625244 96.510 -53.1449
2634.579102 96.539 -54.3591
2653.670410 96.564 -55.5833
2672.899902 96.584 -56.8160
2692.268799 96.601 -58.0560
2711.778076 96.613 -59.3017
2731.428711 96.620 -60.5515
2751.221680 96.624 -61.8038
2771.158203 96.623 -63.0569
2791.239258 96.618 -64.3091
2811.465820 96.608 -65.5587
2831.838867 96.594 -66.8038
2852.359619 96.576 -68.0430
2873.029053 96.554 -69.2745
2893.848145 96.528 -70.4967
2914.818115 96.499 -71.7081
2935.940186 96.466 -72.9075
2957.215332 96.429 -74.0936
2978.644531 96.390 -75.2652
3000.229004 96.347 -76.4213
3021.969971 96.302 -77.5612
3043.868408 96.255 -78.6841
3065.925537 96.205 -79.7895
3088.142578 96.154 -80.8769
3110.520508 96.101 -81.9460
3133.060547 96.046 -82.9967
3155.763916 95.991 -84.0288
3178.631836 95.935 -85.0425
3201.665527 95.878 -86.0378
3224.866211 95.820 -87.0149
3248.234863 95.763 -87.9742
3271.772949 95.705 -88.9160
3295.481445 95.648 -89.8408
3319.361816 95.591 -90.7491
3343.415283 95.534 -91.6413
3367.643066 95.479 -92.5183
3392.046387 95.424 -93.3806
3416.626465 95.371 -94.2289
3441.384766 95.319 -95.0641
3466.322510 95.268 -95.8870
3491.440918 95.219 -96.6984
3516.741455 95.171 -97.4993
3542.225098 95.125 -98.2906
3567.893555 95.082 -99.0735
3593.748047 95.040 -99.8488
3619.789795 95.000 -100.6178
3646.020264 94.963 -101.3815
3672.440918 94.928 -102.1413
3699.052979 94.895 -102.8981
3725.857910 94.865 -103.6535
3752.856934 94.837 -104.4085
3780.051758 94.812 -105.1645
3807.443604 94.789 -105.9229
3835.033936 94.768 -106.6849
3862.824219 94.750 -107.4520
3890.815918 94.735 -108.2256
3919.010254 94.722 -109.0068
3947.408936 94.711 -109.7972
3976.013428 94.703 -110.5979
4004.825195 94.697 -111.4104
4033.845703 94.693 -112.2358
