* Measurement data measured by REW V5.30.4
* Source: EXCL: Headset (CX31993 HIFI AUDIO), MICROPHONE (Master Volume), 0, volume: 0.350
* Format: 256k Log Swept Sine, 1 sweep at -12.0 dBFS with no timing reference
* Dated: 01 19, 24 2:29:23 PM
* REW Settings:
*  C-weighting compensation: Off
*  Target level: 75.0 dB
* Note: ; 
* Measurement: Thieaudio Hype4 R
* Smoothing: 1/12 octave
* Frequency Step: 96 ppo
* Start Frequency: 20.141602 Hz
*
* Freq(Hz) SPL(dB) Phase(degrees)
20.141602 98.018 20.7010
20.287556 98.013 20.5279
20.434568 98.004 20.2806
20.582645 97.994 19.9899
20.731796 97.982 19.6819
20.882027 97.970 19.3747
21.033346 97.960 19.0786
21.185762 97.953 18.7974
21.339283 97.949 18.5298
21.493916 97.949 18.2719
21.649670 97.953 18.0176
21.806553 97.962 17.7607
21.964573 97.974 17.4954
22.123737 97.988 17.2172
22.284056 98.004 16.9233
22.445536 98.020 16.6129
22.608185 98.035 16.2866
22.772013 98.048 15.9463
22.937029 98.059 15.5944
23.103241 98.068 15.2333
23.270657 98.075 14.8648
23.439285 98.079 14.4895
23.609137 98.082 14.1071
23.780218 98.084 13.7164
23.952539 98.085 13.3158
24.126110 98.085 12.9039
24.300938 98.084 12.4804
24.477032 98.082 12.0465
24.654402 98.079 11.6051
24.833057 98.074 11.1611
25.013008 98.067 10.7203
25.194263 98.059 10.2889
25.376831 98.049 9.8725
25.560722 98.040 9.4750
25.745945 98.031 9.0980
25.932510 98.023 8.7406
26.120428 98.016 8.3999
26.309708 98.011 8.0720
26.500359 98.005 7.7528
26.692390 97.999 7.4400
26.885815 97.992 7.1332
27.080641 97.984 6.8345
27.276878 97.973 6.5475
27.474539 97.960 6.2764
27.673630 97.947 6.0235
27.874165 97.935 5.7882
28.076153 97.925 5.5655
28.279604 97.920 5.3464
28.484529 97.919 5.1195
28.690941 97.922 4.8732
28.898848 97.928 4.5990
29.108261 97.934 4.2942
29.319191 97.939 3.9633
29.531651 97.940 3.6170
29.745649 97.937 3.2707
29.961199 97.929 2.9401
30.178310 97.920 2.6374
30.396996 97.910 2.3674
30.617264 97.903 2.1259
30.839128 97.900 1.9003
31.062601 97.902 1.6731
31.287693 97.907 1.4266
31.514416 97.913 1.1491
31.742783 97.917 0.8380
31.972803 97.915 0.5015
32.204491 97.906 0.1557
32.437859 97.890 -0.1790
32.672916 97.869 -0.4847
32.909679 97.846 -0.7510
33.148155 97.826 -0.9783
33.388359 97.811 -1.1782
33.630306 97.803 -1.3700
33.874004 97.802 -1.5749
34.119469 97.806 -1.8102
34.366711 97.812 -2.0841
34.615746 97.816 -2.3951
34.866585 97.817 -2.7332
35.119244 97.811 -3.0842
35.373734 97.798 -3.4338
35.630066 97.781 -3.7721
35.888256 97.759 -4.0951
36.148315 97.734 -4.4045
36.410259 97.710 -4.7067
36.674103 97.686 -5.0094
36.939857 97.666 -5.3202
37.207539 97.649 -5.6449
37.477161 97.638 -5.9864
37.748737 97.633 -6.3446
38.022282 97.633 -6.7162
38.297806 97.637 -7.0952
38.575329 97.644 -7.4730
38.854862 97.650 -7.8399
39.136421 97.654 -8.1871
39.420021 97.653 -8.5089
39.705673 97.645 -8.8045
39.993397 97.632 -9.0795
40.283207 97.612 -9.3447
40.575115 97.587 -9.6140
40.869141 97.560 -9.9015
41.165295 97.532 -10.2174
41.463596 97.505 -10.5651
41.764057 97.481 -10.9402
42.066696 97.460 -11.3301
42.371529 97.443 -11.7165
42.678570 97.429 -12.0797
42.987835 97.417 -12.4027
43.299343 97.404 -12.6756
43.613110 97.390 -12.8985
43.929150 97.372 -13.0811
44.247478 97.351 -13.2409
44.568115 97.325 -13.3983
44.891075 97.298 -13.5716
45.216373 97.269 -13.7742
45.544029 97.243 -14.0122
45.874062 97.222 -14.2858
46.206486 97.207 -14.5910
46.541317 97.200 -14.9209
46.878574 97.198 -15.2674
47.218277 97.197 -15.6219
47.560440 97.195 -15.9764
47.905083 97.188 -16.3258
48.252224 97.175 -16.6700
48.601879 97.155 -17.0144
48.954067 97.129 -17.3681
49.308807 97.100 -17.7396
49.666119 97.068 -18.1313
50.026020 97.034 -18.5365
50.388531 96.998 -18.9404
50.753666 96.960 -19.3240
51.121449 96.921 -19.6710
51.491894 96.882 -19.9723
51.865025 96.843 -20.2282
52.240860 96.804 -20.4465
52.619419 96.767 -20.6386
53.000721 96.732 -20.8162
53.384785 96.699 -20.9889
53.771633 96.670 -21.1642
54.161285 96.645 -21.3471
54.553761 96.624 -21.5420
54.949081 96.608 -21.7536
55.347263 96.595 -21.9880
55.748333 96.583 -22.2518
56.152309 96.571 -22.5497
56.559212 96.556 -22.8794
56.969063 96.534 -23.2297
57.381886 96.506 -23.5820
57.797699 96.472 -23.9172
58.216526 96.434 -24.2244
58.638386 96.394 -24.5050
59.063305 96.356 -24.7702
59.491302 96.319 -25.0339
59.922401 96.284 -25.3052
60.356625 96.250 -25.5869
60.793995 96.217 -25.8777
61.234531 96.186 -26.1757
61.678261 96.156 -26.4788
62.125206 96.127 -26.7839
62.575390 96.099 -27.0863
63.028835 96.072 -27.3817
63.485569 96.045 -27.6680
63.945610 96.018 -27.9439
64.408989 95.991 -28.2075
64.875725 95.964 -28.4561
65.345840 95.938 -28.6891
65.819366 95.912 -28.9105
66.296318 95.888 -29.1271
66.776726 95.863 -29.3436
67.260620 95.836 -29.5582
67.748016 95.805 -29.7653
68.238945 95.770 -29.9621
68.733429 95.732 -30.1537
69.231499 95.691 -30.3532
69.733177 95.649 -30.5748
70.238495 95.604 -30.8271
70.747475 95.554 -31.1085
71.260139 95.500 -31.4104
71.776520 95.442 -31.7215
72.296638 95.382 -32.0326
72.820526 95.323 -32.3371
73.348213 95.270 -32.6297
73.879723 95.223 -32.9041
74.415085 95.185 -33.1530
74.954330 95.153 -33.3703
75.497482 95.126 -33.5542
76.044571 95.099 -33.7106
76.595619 95.069 -33.8528
77.150665 95.034 -33.9970
77.709732 94.992 -34.1564
78.272850 94.946 -34.3376
78.840050 94.896 -34.5384
79.411354 94.846 -34.7507
79.986801 94.797 -34.9648
80.566422 94.749 -35.1760
81.150238 94.701 -35.3881
81.738289 94.650 -35.6117
82.330597 94.597 -35.8569
82.927200 94.539 -36.1247
83.528122 94.480 -36.4039
84.133400 94.422 -36.6760
84.743065 94.367 -36.9223
85.357147 94.317 -37.1318
85.975677 94.269 -37.3043
86.598694 94.221 -37.4487
87.226227 94.170 -37.5790
87.858307 94.116 -37.7082
88.494965 94.061 -37.8438
89.136238 94.006 -37.9878
89.782158 93.954 -38.1398
90.432755 93.904 -38.3022
91.088066 93.855 -38.4811
91.748131 93.806 -38.6826
92.412979 93.753 -38.9047
93.082642 93.699 -39.1331
93.757156 93.643 -39.3459
94.436562 93.587 -39.5246
95.120888 93.532 -39.6648
95.810173 93.479 -39.7770
96.504456 93.428 -39.8796
97.203766 93.381 -39.9889
97.908142 93.336 -40.1135
98.617622 93.292 -40.2530
99.332245 93.246 -40.4004
100.052048 93.195 -40.5464
100.777069 93.137 -40.6820
101.507339 93.076 -40.8012
102.242905 93.011 -40.9023
102.983795 92.947 -40.9884
103.730057 92.885 -41.0655
104.481728 92.825 -41.1390
105.238846 92.770 -41.2124
106.001450 92.719 -41.2888
106.769577 92.670 -41.3737
107.543274 92.623 -41.4734
108.322578 92.574 -41.5906
109.107529 92.523 -41.7219
109.898170 92.468 -41.8584
110.694534 92.409 -41.9915
111.496674 92.347 -42.1176
112.304626 92.283 -42.2377
113.118431 92.220 -42.3543
113.938133 92.157 -42.4677
114.763779 92.095 -42.5748
115.595406 92.033 -42.6698
116.433060 91.971 -42.7467
117.276779 91.909 -42.8017
118.126617 91.847 -42.8350
118.982613 91.783 -42.8519
119.844810 91.719 -42.8623
120.713257 91.654 -42.8756
121.587997 91.587 -42.8959
122.469070 91.521 -42.9220
123.356529 91.457 -42.9487
124.250420 91.394 -42.9706
125.150787 91.332 -42.9838
126.057678 91.272 -42.9843
126.971146 91.213 -42.9667
127.891228 91.151 -42.9263
128.817978 91.088 -42.8617
129.751450 91.021 -42.7740
130.691681 90.953 -42.6637
131.638733 90.883 -42.5305
132.592636 90.813 -42.3793
133.553452 90.744 -42.2246
134.521240 90.676 -42.0871
135.496033 90.610 -41.9806
136.477890 90.546 -41.9030
137.466858 90.484 -41.8412
138.462997 90.424 -41.7823
139.466354 90.365 -41.7171
140.476990 90.309 -41.6401
141.494949 90.254 -41.5514
142.520279 90.201 -41.4557
143.553040 90.147 -41.3603
144.593277 90.092 -41.2714
145.641052 90.038 -41.1921
146.696426 89.983 -41.1199
147.759445 89.930 -41.0478
148.830170 89.877 -40.9687
149.908661 89.825 -40.8797
150.994965 89.772 -40.7832
152.089142 89.718 -40.6860
153.191238 89.664 -40.5950
154.301331 89.609 -40.5108
155.419464 89.556 -40.4251
156.545700 89.504 -40.3254
157.680099 89.452 -40.2061
158.822708 89.400 -40.0711
159.973602 89.348 -39.9280
161.132843 89.295 -39.7805
162.300476 89.244 -39.6262
163.476578 89.192 -39.4627
164.661194 89.140 -39.2925
165.854401 89.089 -39.1207
167.056244 89.039 -38.9489
168.266800 88.991 -38.7745
169.486130 88.944 -38.5955
170.714294 88.898 -38.4142
171.951355 88.853 -38.2334
173.197388 88.807 -38.0543
174.452454 88.762 -37.8780
175.716614 88.717 -37.7046
176.989929 88.673 -37.5306
178.272476 88.630 -37.3524
179.564316 88.586 -37.1705
180.865509 88.542 -36.9886
182.176132 88.498 -36.8096
183.496262 88.453 -36.6329
184.825958 88.409 -36.4551
186.165283 88.365 -36.2733
187.514313 88.321 -36.0877
188.873123 88.277 -35.9006
190.241776 88.233 -35.7137
191.620346 88.189 -35.5256
193.008911 88.146 -35.3345
194.407532 88.103 -35.1404
195.816284 88.061 -34.9430
197.235245 88.019 -34.7398
198.664490 87.978 -34.5292
200.104095 87.937 -34.3131
201.554138 87.896 -34.0928
203.014679 87.856 -33.8680
204.485809 87.816 -33.6384
205.967590 87.777 -33.4051
207.460114 87.738 -33.1692
208.963455 87.699 -32.9303
210.477692 87.661 -32.6875
212.002899 87.622 -32.4405
213.539154 87.584 -32.1886
215.086548 87.546 -31.9304
216.645157 87.507 -31.6656
218.215057 87.470 -31.3970
219.796341 87.432 -31.1269
221.389069 87.396 -30.8529
222.993347 87.360 -30.5703
224.609253 87.325 -30.2761
226.236862 87.292 -29.9703
227.876266 87.259 -29.6531
229.527557 87.228 -29.3222
231.190811 87.198 -28.9750
232.866119 87.171 -28.6102
234.553558 87.147 -28.2300
236.253235 87.126 -27.8389
237.965225 87.109 -27.4425
239.689621 87.097 -27.0460
241.426514 87.089 -26.6548
243.175995 87.085 -26.2751
244.938141 87.087 -25.9136
246.713058 87.093 -25.5776
248.500839 87.103 -25.2744
250.301575 87.115 -25.0095
252.115356 87.130 -24.7860
253.942291 87.144 -24.6034
255.782455 87.158 -24.4574
257.635956 87.169 -24.3407
259.502899 87.176 -24.2452
261.383362 87.180 -24.1634
263.277466 87.178 -24.0885
265.185272 87.173 -24.0147
267.106903 87.164 -23.9378
269.042480 87.153 -23.8547
270.992065 87.140 -23.7635
272.955780 87.125 -23.6627
274.933716 87.110 -23.5513
276.925995 87.094 -23.4288
278.932709 87.077 -23.2956
280.953979 87.060 -23.1531
282.989899 87.043 -23.0037
285.040558 87.026 -22.8496
287.106079 87.009 -22.6926
289.186554 86.992 -22.5338
291.282104 86.975 -22.3742
293.392853 86.959 -22.2145
295.518890 86.943 -22.0543
297.660339 86.927 -21.8920
299.817322 86.913 -21.7262
301.989929 86.899 -21.5563
304.178284 86.887 -21.3826
306.382477 86.876 -21.2066
308.602661 86.865 -21.0299
310.838928 86.855 -20.8544
313.091400 86.846 -20.6817
315.360199 86.837 -20.5130
317.645416 86.829 -20.3490
319.947205 86.821 -20.1898
322.265686 86.813 -20.0344
324.600952 86.805 -19.8816
326.953156 86.798 -19.7297
329.322388 86.790 -19.5772
331.708801 86.782 -19.4227
334.112488 86.774 -19.2650
336.533600 86.766 -19.1047
338.972260 86.759 -18.9430
341.428589 86.751 -18.7814
343.902710 86.744 -18.6217
346.394775 86.737 -18.4650
348.904907 86.729 -18.3117
351.433228 86.722 -18.1604
353.979858 86.714 -18.0099
356.544952 86.707 -17.8593
359.128632 86.699 -17.7081
361.731018 86.692 -17.5563
364.352264 86.685 -17.4038
366.992523 86.678 -17.2513
369.651917 86.671 -17.0998
372.330566 86.664 -16.9501
375.028625 86.658 -16.8023
377.746246 86.651 -16.6563
380.483551 86.645 -16.5118
383.240692 86.639 -16.3684
386.017822 86.633 -16.2258
388.815063 86.627 -16.0837
391.632568 86.622 -15.9417
394.470490 86.617 -15.7990
397.328979 86.611 -15.6547
400.208191 86.607 -15.5082
403.108276 86.602 -15.3594
406.029358 86.597 -15.2079
408.971619 86.593 -15.0539
411.935181 86.589 -14.8980
414.920227 86.585 -14.7411
417.926910 86.581 -14.5838
420.955383 86.578 -14.4262
424.005798 86.576 -14.2681
427.078308 86.575 -14.1094
430.173096 86.575 -13.9506
433.290314 86.575 -13.7928
436.430115 86.577 -13.6374
439.592682 86.580 -13.4852
442.778137 86.584 -13.3378
445.986694 86.588 -13.1969
449.218506 86.592 -13.0642
452.473724 86.597 -12.9416
455.752533 86.601 -12.8303
459.055115 86.604 -12.7305
462.381622 86.606 -12.6417
465.732239 86.607 -12.5619
469.107117 86.606 -12.4884
472.506470 86.603 -12.4168
475.930450 86.597 -12.3410
479.379242 86.590 -12.2544
482.853027 86.583 -12.1521
486.351990 86.576 -12.0335
489.876282 86.570 -11.9045
493.426117 86.567 -11.7757
497.001678 86.565 -11.6577
500.603149 86.562 -11.5542
504.230713 86.558 -11.4603
507.884583 86.551 -11.3638
511.564911 86.540 -11.2504
515.271912 86.529 -11.1084
519.005798 86.517 -10.9334
522.766724 86.509 -10.7307
526.554932 86.505 -10.5138
530.370544 86.505 -10.2988
534.213806 86.510 -10.0985
538.084961 86.517 -9.9194
541.984131 86.526 -9.7622
545.911560 86.534 -9.6234
549.867432 86.543 -9.4981
553.851990 86.550 -9.3814
557.865417 86.556 -9.2692
561.907959 86.561 -9.1586
565.979797 86.566 -9.0477
570.081116 86.569 -8.9356
574.212158 86.573 -8.8219
578.373108 86.576 -8.7068
582.564209 86.579 -8.5907
586.785706 86.582 -8.4740
591.037781 86.584 -8.3567
595.320679 86.586 -8.2384
599.634644 86.589 -8.1186
603.979858 86.591 -7.9968
608.356567 86.593 -7.8726
612.764954 86.595 -7.7457
617.205322 86.598 -7.6164
621.677856 86.600 -7.4847
626.182800 86.602 -7.3509
630.720398 86.604 -7.2150
635.290833 86.606 -7.0769
639.894409 86.608 -6.9365
644.531372 86.610 -6.7936
649.201904 86.612 -6.6480
653.906311 86.614 -6.4993
658.644775 86.616 -6.3476
663.417603 86.619 -6.1929
668.224976 86.621 -6.0351
673.067200 86.624 -5.8742
677.944519 86.627 -5.7096
682.857178 86.630 -5.5407
687.805420 86.633 -5.3661
692.789551 86.637 -5.1847
697.809814 86.641 -4.9958
702.866455 86.646 -4.7989
707.959717 86.651 -4.5932
713.089905 86.657 -4.3780
718.257263 86.664 -4.1517
723.462036 86.673 -3.9128
728.704529 86.684 -3.6599
733.985046 86.698 -3.3926
739.303833 86.716 -3.1126
744.661133 86.739 -2.8245
750.057251 86.766 -2.5364
755.492493 86.798 -2.2584
760.967102 86.836 -2.0012
766.481384 86.876 -1.7740
772.035645 86.919 -1.5826
777.630127 86.963 -1.4283
783.265137 87.005 -1.3084
788.940979 87.044 -1.2170
794.657959 87.081 -1.1460
800.416382 87.114 -1.0867
806.216553 87.143 -1.0308
812.058716 87.170 -0.9721
817.943237 87.195 -0.9057
823.870361 87.218 -0.8288
829.840454 87.241 -0.7399
835.853821 87.264 -0.6390
841.910767 87.287 -0.5270
848.011597 87.310 -0.4057
854.156616 87.335 -0.2765
860.346191 87.360 -0.1410
866.580627 87.387 -0.0007
872.860229 87.415 0.1434
879.185364 87.444 0.2900
885.556274 87.475 0.4378
891.973389 87.507 0.5854
898.437012 87.541 0.7320
904.947449 87.576 0.8767
911.505066 87.613 1.0188
918.110229 87.652 1.1581
924.763245 87.692 1.2943
931.464478 87.733 1.4273
938.214233 87.776 1.5569
945.012939 87.820 1.6824
951.860901 87.865 1.8029
958.758484 87.912 1.9174
965.706055 87.960 2.0253
972.703979 88.010 2.1262
979.752563 88.060 2.2199
986.852234 88.112 2.3058
994.003357 88.165 2.3834
1001.206299 88.220 2.4524
1008.461426 88.275 2.5125
1015.769165 88.331 2.5635
1023.129822 88.388 2.6051
1030.543823 88.445 2.6368
1038.011597 88.504 2.6582
1045.533447 88.563 2.6688
1053.109863 88.623 2.6683
1060.741089 88.683 2.6565
1068.427612 88.744 2.6334
1076.169922 88.805 2.5989
1083.968262 88.866 2.5534
1091.823120 88.927 2.4970
1099.734863 88.989 2.4297
1107.703979 89.051 2.3516
1115.730835 89.112 2.2628
1123.815918 89.174 2.1636
1131.959595 89.235 2.0543
1140.162231 89.296 1.9354
1148.424316 89.357 1.8070
1156.746216 89.418 1.6694
1165.128418 89.478 1.5223
1173.571411 89.537 1.3659
1182.075562 89.597 1.2006
1190.641357 89.655 1.0269
1199.269287 89.713 0.8455
1207.959717 89.771 0.6571
1216.713135 89.827 0.4623
1225.529907 89.883 0.2614
1234.410645 89.939 0.0548
1243.355713 89.993 -0.1570
1252.365601 90.047 -0.3736
1261.440796 90.100 -0.5947
1270.581665 90.153 -0.8201
1279.788818 90.205 -1.0490
1289.062744 90.256 -1.2812
1298.403809 90.306 -1.5163
1307.812622 90.356 -1.7541
1317.289551 90.406 -1.9943
1326.835205 90.455 -2.2366
1336.449951 90.504 -2.4809
1346.134399 90.552 -2.7268
1355.889038 90.600 -2.9742
1365.714355 90.647 -3.2227
1375.610840 90.695 -3.4723
1385.579102 90.742 -3.7226
1395.619629 90.788 -3.9735
1405.732910 90.835 -4.2248
1415.919434 90.881 -4.4764
1426.179810 90.927 -4.7281
1436.514526 90.973 -4.9798
1446.924072 91.019 -5.2318
1457.409058 91.065 -5.4841
1467.970093 91.112 -5.7371
1478.607666 91.158 -5.9906
1489.322266 91.205 -6.2446
1500.114502 91.253 -6.4992
1510.984985 91.300 -6.7543
1521.934204 91.349 -7.0105
1532.962769 91.398 -7.2679
1544.071289 91.447 -7.5268
1555.260254 91.497 -7.7872
1566.530273 91.548 -8.0493
1577.881958 91.600 -8.3131
1589.315918 91.652 -8.5787
1600.832764 91.704 -8.8464
1612.433105 91.757 -9.1163
1624.117432 91.811 -9.3884
1635.886475 91.866 -9.6630
1647.740723 91.921 -9.9404
1659.680908 91.976 -10.2210
1671.707642 92.033 -10.5052
1683.821533 92.090 -10.7934
1696.023193 92.149 -11.0861
1708.313232 92.208 -11.3835
1720.692383 92.268 -11.6859
1733.161255 92.328 -11.9934
1745.720459 92.390 -12.3061
1758.370728 92.453 -12.6244
1771.112549 92.517 -12.9486
1783.946777 92.582 -13.2794
1796.874023 92.648 -13.6172
1809.894897 92.714 -13.9623
1823.010132 92.782 -14.3147
1836.220459 92.850 -14.6742
1849.526489 92.919 -15.0410
1862.928955 92.990 -15.4156
1876.428467 93.061 -15.7988
1890.025879 93.132 -16.1915
1903.721802 93.205 -16.5935
1917.516968 93.279 -17.0047
1931.412109 93.353 -17.4250
1945.407959 93.429 -17.8549
1959.505127 93.505 -18.2958
1973.704468 93.583 -18.7488
1988.006714 93.662 -19.2145
2002.412598 93.743 -19.6929
2016.922852 93.824 -20.1837
2031.538330 93.907 -20.6870
2046.259644 93.990 -21.2032
2061.087646 94.075 -21.7334
2076.023193 94.160 -22.2787
2091.066895 94.247 -22.8400
2106.219727 94.335 -23.4185
2121.482178 94.424 -24.0154
2136.855225 94.514 -24.6324
2152.339844 94.606 -25.2715
2167.936523 94.699 -25.9346
2183.646240 94.792 -26.6228
2199.469727 94.886 -27.3367
2215.407959 94.980 -28.0768
2231.461670 95.074 -28.8432
2247.631836 95.168 -29.6362
2263.919189 95.260 -30.4558
2280.324463 95.352 -31.3018
2296.848633 95.443 -32.1740
2313.492432 95.532 -33.0720
2330.256836 95.620 -33.9952
2347.142822 95.707 -34.9431
2364.151123 95.793 -35.9150
2381.282715 95.877 -36.9107
2398.538574 95.959 -37.9300
2415.919434 96.040 -38.9724
2433.426270 96.119 -40.0377
2451.059814 96.196 -41.1259
2468.821289 96.270 -42.2370
2486.711426 96.343 -43.3712
2504.731201 96.413 -44.5287
2522.881592 96.480 -45.7104
2541.163330 96.544 -46.9168
2559.577637 96.606 -48.1489
2578.125488 96.665 -49.4073
2596.807617 96.720 -50.6924
2615.625244 96.771 -52.0048
2634.579102 96.819 -53.3446
2653.670410 96.861 -54.7122
2672.899902 96.898 -56.1073
2692.268799 96.929 -57.5287
2711.778076 96.954 -58.9740
2731.428711 96.971 -60.4397
2751.221680 96.981 -61.9211
2771.158203 96.981 -63.4124
2791.239258 96.974 -64.9069
2811.465820 96.957 -66.3975
2831.838867 96.931 -67.8767
2852.359619 96.897 -69.3373
2873.029053 96.855 -70.7727
2893.848145 96.805 -72.1770
2914.818115 96.750 -73.5459
2935.940186 96.689 -74.8764
2957.215332 96.623 -76.1666
2978.644531 96.555 -77.4160
3000.229004 96.483 -78.6251
3021.969971 96.410 -79.7954
3043.868408 96.336 -80.9287
3065.925537 96.261 -82.0275
3088.142578 96.186 -83.0943
3110.520508 96.111 -84.1315
3133.060547 96.036 -85.1412
3155.763916 95.962 -86.1251
3178.631836 95.889 -87.0849
3201.665527 95.817 -88.0220
3224.866211 95.746 -88.9377
3248.234863 95.675 -89.8334
3271.772949 95.606 -90.7100
3295.481445 95.538 -91.5684
3319.361816 95.472 -92.4089
3343.415283 95.406 -93.2321
3367.643066 95.342 -94.0384
3392.046387 95.280 -94.8286
3416.626465 95.219 -95.6035
3441.384766 95.160 -96.3641
3466.322510 95.103 -97.1115
3491.440918 95.049 -97.8464
3516.741455 94.996 -98.5696
3542.225098 94.946 -99.2819
3567.893555 94.898 -99.9843
3593.748047 94.853 -100.6777
3619.789795 94.811 -101.3635
3646.020264 94.771 -102.0427
3672.440918 94.734 -102.7167
3699.052979 94.700 -103.3867
3725.857910 94.669 -104.0539
3752.856934 94.641 -104.7194
3780.051758 94.616 -105.3846
3807.443604 94.594 -106.0507
3835.033936 94.576 -106.7194
3862.824219 94.560 -107.3920
3890.815918 94.548 -108.0704
3919.010254 94.539 -108.7563
3947.408936 94.533 -109.4514
3976.013428 94.530 -110.1575
4004.825195 94.531 -110.8764
4033.845703 94.534 -111.6098
