* Measurement data measured by REW V5.31.3
* Source: Headset (CX31993 HIFI AUDIO), MICROPHONE (Master Volume), R, volume: 0.250
* Format: 256k Log Swept Sine, 1 sweep at -12.0 dBFS with no timing reference
* Dated: 01 11, 25 3:27:15 PM
* REW Settings:
*  C-weighting compensation: Off
*  Target level: 75.0 dB
* Note: ; 
* Measurement: Thieaudio Oracle mk3 L
* Smoothing: 1/12 octave
* Frequency Step: 96 ppo
* Start Frequency: 0.36621094 Hz
*
* Freq(Hz) SPL(dB) Phase(degrees)
0.366211 57.353 -33.0716
0.368865 57.352 -33.1454
0.371538 57.351 -33.2556
0.374230 57.349 -33.3935
0.376942 57.347 -33.5515
0.379673 57.344 -33.7239
0.382424 57.342 -33.9071
0.385196 57.339 -34.0990
0.387987 57.337 -34.2982
0.390798 57.334 -34.5040
0.393630 57.332 -34.7162
0.396483 57.329 -34.9346
0.399356 57.326 -35.1592
0.402250 57.324 -35.3901
0.405165 57.321 -35.6273
0.408101 57.318 -35.8708
0.411058 57.315 -36.1209
0.414037 57.313 -36.3776
0.417037 57.310 -36.6409
0.420059 57.307 -36.9111
0.423103 57.304 -37.1882
0.426169 57.301 -37.4723
0.429257 57.299 -37.7636
0.432368 57.296 -38.0620
0.435501 57.293 -38.3678
0.438656 57.290 -38.6811
0.441835 57.287 -39.0020
0.445037 57.284 -39.3305
0.448262 57.281 -39.6668
0.451510 57.278 -40.0111
0.454782 57.275 -40.3634
0.458077 57.272 -40.7238
0.461397 57.269 -41.0925
0.464740 57.266 -41.4695
0.468108 57.263 -41.8550
0.471500 57.260 -42.2492
0.474917 57.256 -42.6521
0.478358 57.253 -43.0638
0.481825 57.250 -43.4845
0.485316 57.247 -43.9142
0.488833 57.244 -44.3531
0.492375 57.240 -44.8014
0.495943 57.237 -45.2590
0.499537 57.234 -45.7262
0.503157 57.230 -46.2031
0.506803 57.227 -46.6897
0.510475 57.224 -47.1862
0.514175 57.220 -47.6927
0.517900 57.217 -48.2092
0.521653 57.213 -48.7360
0.525434 57.210 -49.2731
0.529241 57.206 -49.8206
0.533076 57.203 -50.3785
0.536939 57.199 -50.9472
0.540830 57.195 -51.5265
0.544749 57.192 -52.1165
0.548696 57.188 -52.7175
0.552673 57.185 -53.3295
0.556677 57.181 -53.9525
0.560711 57.177 -54.5867
0.564774 57.173 -55.2320
0.568867 57.170 -55.8887
0.572989 57.166 -56.5567
0.577141 57.162 -57.2361
0.581324 57.158 -57.9269
0.585536 57.154 -58.6293
0.589779 57.150 -59.3433
0.594053 57.146 -60.0688
0.598358 57.142 -60.8060
0.602694 57.138 -61.5548
0.607061 57.134 -62.3154
0.611460 57.130 -63.0876
0.615891 57.126 -63.8716
0.620354 57.122 -64.6672
0.624849 57.118 -65.4746
0.629377 57.114 -66.2937
0.633938 57.109 -67.1244
0.638532 57.105 -67.9668
0.643159 57.101 -68.8208
0.647819 57.097 -69.6864
0.652514 57.092 -70.5635
0.657242 57.088 -71.4521
0.662005 57.083 -72.3521
0.666802 57.079 -73.2634
0.671634 57.075 -74.1859
0.676501 57.070 -75.1197
0.681403 57.066 -76.0644
0.686341 57.061 -77.0202
0.691314 57.057 -77.9868
0.696324 57.053 -78.9642
0.701370 57.049 -79.9522
0.706452 57.046 -80.9507
0.711571 57.045 -81.9596
0.716728 57.046 -82.9788
0.721921 57.051 -84.0082
0.727153 57.062 -85.0475
0.732422 57.080 -86.0965
0.737729 57.107 -87.1549
0.743075 57.142 -88.2221
0.748460 57.185 -89.2973
0.753883 57.233 -90.3798
0.759346 57.287 -91.4685
0.764849 57.345 -92.5626
0.770391 57.406 -93.6609
0.775974 57.471 -94.7625
0.781597 57.539 -95.8663
0.787261 57.609 -96.9712
0.792966 57.683 -98.0764
0.798712 57.760 -99.1807
0.804500 57.840 -100.2834
0.810329 57.923 -101.3834
0.816201 58.009 -102.4798
0.822116 58.097 -103.5720
0.828073 58.189 -104.6590
0.834074 58.283 -105.7402
0.840118 58.380 -106.8148
0.846206 58.479 -107.8823
0.852338 58.581 -108.9421
0.858514 58.686 -109.9937
0.864735 58.793 -111.0366
0.871001 58.903 -112.0703
0.877313 59.016 -113.0947
0.883670 59.130 -114.1093
0.890074 59.247 -115.1140
0.896524 59.366 -116.1084
0.903020 59.488 -117.0926
0.909564 59.611 -118.0664
0.916155 59.737 -119.0298
0.922794 59.864 -119.9827
0.929481 59.993 -120.9251
0.936216 60.124 -121.8573
0.943000 60.257 -122.7792
0.949834 60.391 -123.6910
0.956717 60.527 -124.5929
0.963649 60.663 -125.4851
0.970632 60.801 -126.3678
0.977666 60.940 -127.2413
0.984750 61.080 -128.1058
0.991886 61.221 -128.9617
0.999074 61.362 -129.8092
1.006314 61.504 -130.6487
1.013606 61.646 -131.4804
1.020951 61.788 -132.3049
1.028349 61.931 -133.1224
1.035801 62.073 -133.9332
1.043307 62.214 -134.7379
1.050867 62.356 -135.5366
1.058482 62.496 -136.3298
1.066152 62.636 -137.1176
1.073878 62.775 -137.9004
1.081660 62.913 -138.6782
1.089498 63.050 -139.4507
1.097393 63.187 -140.2178
1.105345 63.324 -140.9788
1.113355 63.462 -141.7332
1.121423 63.600 -142.4802
1.129549 63.739 -143.2196
1.137734 63.880 -143.9509
1.145979 64.022 -144.6741
1.154283 64.166 -145.3890
1.162647 64.311 -146.0958
1.171072 64.457 -146.7943
1.179558 64.604 -147.4848
1.188106 64.753 -148.1673
1.196715 64.903 -148.8420
1.205387 65.054 -149.5090
1.214122 65.207 -150.1686
1.222920 65.360 -150.8209
1.231782 65.515 -151.4661
1.240708 65.670 -152.1045
1.249699 65.827 -152.7361
1.258754 65.984 -153.3614
1.267876 66.142 -153.9805
1.277063 66.301 -154.5936
1.286318 66.460 -155.2011
1.295639 66.620 -155.8031
1.305027 66.781 -156.4000
1.314484 66.942 -156.9919
1.324009 67.103 -157.5792
1.333604 67.265 -158.1621
1.343268 67.427 -158.7409
1.353002 67.588 -159.3159
1.362806 67.750 -159.8873
1.372681 67.912 -160.4554
1.382628 68.073 -161.0206
1.392647 68.234 -161.5829
1.402739 68.394 -162.1428
1.412904 68.554 -162.7003
1.423142 68.713 -163.2557
1.433455 68.872 -163.8089
1.443843 69.029 -164.3601
1.454305 69.186 -164.9088
1.464844 69.342 -165.4547
1.475459 69.497 -165.9972
1.486150 69.652 -166.5358
1.496920 69.805 -167.0701
1.507767 69.959 -167.5999
1.518693 70.112 -168.1252
1.529698 70.264 -168.6460
1.540783 70.416 -169.1626
1.551948 70.567 -169.6752
1.563194 70.718 -170.1841
1.574521 70.868 -170.6898
1.585931 71.019 -171.1925
1.597423 71.168 -171.6926
1.608999 71.318 -172.1905
1.620658 71.467 -172.6865
1.632402 71.615 -173.1810
1.644232 71.763 -173.6744
1.656146 71.911 -174.1670
1.668147 72.059 -174.6593
1.680235 72.206 -175.1516
1.692411 72.354 -175.6444
1.704675 72.501 -176.1379
1.717028 72.647 -176.6326
1.729470 72.794 -177.1289
1.742003 72.941 -177.6272
1.754626 73.087 -178.1277
1.767341 73.233 -178.6308
1.780147 73.379 -179.1368
1.793047 73.526 -179.6459
1.806040 73.672 179.8418
1.819128 73.818 179.3264
1.832310 73.963 178.8083
1.845587 74.108 178.2878
1.858961 74.253 177.7654
1.872432 74.397 177.2418
1.886001 74.541 176.7172
1.899667 74.684 176.1921
1.913433 74.826 175.6666
1.927299 74.968 175.1408
1.941265 75.109 174.6150
1.955332 75.249 174.0892
1.969501 75.389 173.5633
1.983773 75.528 173.0374
1.998148 75.667 172.5115
2.012627 75.805 171.9856
2.027212 75.943 171.4594
2.041902 76.080 170.9330
2.056698 76.217 170.4063
2.071602 76.353 169.8790
2.086614 76.490 169.3510
2.101734 76.625 168.8222
2.116964 76.761 168.2923
2.132304 76.896 167.7610
2.147756 77.031 167.2283
2.163320 77.166 166.6938
2.178996 77.301 166.1573
2.194786 77.435 165.6187
2.210690 77.569 165.0779
2.226710 77.702 164.5347
2.242845 77.834 163.9894
2.259098 77.966 163.4421
2.275468 78.097 162.8930
2.291957 78.228 162.3424
2.308566 78.358 161.7904
2.325295 78.486 161.2373
2.342145 78.615 160.6832
2.359117 78.742 160.1284
2.376212 78.869 159.5728
2.393431 78.996 159.0167
2.410775 79.121 158.4601
2.428244 79.247 157.9031
2.445840 79.372 157.3456
2.463564 79.496 156.7875
2.481416 79.620 156.2289
2.499397 79.743 155.6696
2.517509 79.866 155.1092
2.535752 79.989 154.5476
2.554127 80.111 153.9844
2.572635 80.233 153.4191
2.591277 80.354 152.8515
2.610055 80.474 152.2813
2.628968 80.593 151.7085
2.648019 80.712 151.1332
2.667208 80.830 150.5557
2.686535 80.947 149.9762
2.706003 81.063 149.3951
2.725612 81.178 148.8128
2.745363 81.293 148.2296
2.765257 81.407 147.6456
2.785295 81.520 147.0612
2.805478 81.633 146.4766
2.825808 81.745 145.8919
2.846285 81.857 145.3072
2.866910 81.968 144.7224
2.887685 82.079 144.1374
2.908611 82.189 143.5518
2.929688 82.298 142.9651
2.950917 82.407 142.3766
2.972301 82.515 141.7861
2.993839 82.622 141.1931
3.015534 82.728 140.5977
3.037386 82.833 140.0001
3.059396 82.937 139.4006
3.081565 83.041 138.7997
3.103896 83.144 138.1977
3.126388 83.246 137.5952
3.149043 83.347 136.9925
3.171862 83.448 136.3901
3.194847 83.548 135.7883
3.217998 83.647 135.1873
3.241317 83.746 134.5870
3.264805 83.844 133.9873
3.288463 83.942 133.3879
3.312293 84.038 132.7881
3.336295 84.134 132.1873
3.360471 84.229 131.5852
3.384822 84.324 130.9815
3.409350 84.417 130.3764
3.434056 84.510 129.7701
3.458940 84.601 129.1630
3.484005 84.692 128.5556
3.509252 84.782 127.9482
3.534681 84.872 127.3414
3.560295 84.961 126.7355
3.586094 85.049 126.1307
3.612081 85.136 125.5271
3.638255 85.223 124.9245
3.664620 85.309 124.3225
3.691175 85.395 123.7206
3.717923 85.479 123.1182
3.744864 85.563 122.5151
3.772001 85.646 121.9113
3.799335 85.728 121.3069
3.826866 85.810 120.7023
3.854597 85.890 120.0978
3.882529 85.970 119.4939
3.910664 86.049 118.8910
3.939002 86.128 118.2895
3.967546 86.206 117.6895
3.996296 86.283 117.0911
4.025255 86.360 116.4940
4.054423 86.436 115.8978
4.083804 86.511 115.3020
4.113396 86.586 114.7064
4.143204 86.660 114.1108
4.173227 86.733 113.5155
4.203468 86.805 112.9206
4.233928 86.877 112.3264
4.264609 86.948 111.7333
4.295512 87.018 111.1416
4.326639 87.088 110.5515
4.357992 87.157 109.9629
4.389572 87.225 109.3759
4.421380 87.293 108.7901
4.453419 87.361 108.2051
4.485691 87.427 107.6207
4.518196 87.493 107.0370
4.550936 87.558 106.4539
4.583914 87.623 105.8717
4.617131 87.687 105.2906
4.650589 87.750 104.7110
4.684289 87.813 104.1331
4.718233 87.876 103.5569
4.752424 87.937 102.9823
4.786862 87.998 102.4093
4.821549 88.059 101.8375
4.856488 88.119 101.2667
4.891680 88.178 100.6969
4.927127 88.237 100.1282
4.962831 88.295 99.5607
4.998794 88.353 98.9948
5.035017 88.410 98.4304
5.071503 88.467 97.8679
5.108253 88.523 97.3071
5.145270 88.578 96.7480
5.182555 88.633 96.1904
5.220110 88.688 95.6342
5.257937 88.742 95.0792
5.296038 88.795 94.5256
5.334415 88.848 93.9734
5.373071 88.901 93.4228
5.412006 88.953 92.8739
5.451224 89.004 92.3268
5.490725 89.055 91.7814
5.530514 89.106 91.2378
5.570590 89.156 90.6956
5.610957 89.206 90.1549
5.651616 89.255 89.6157
5.692570 89.304 89.0779
5.733821 89.353 88.5416
5.775370 89.401 88.0069
5.817221 89.449 87.4738
5.859375 89.496 86.9423
5.901834 89.543 86.4124
5.944602 89.589 85.8839
5.987679 89.636 85.3568
6.031068 89.681 84.8309
6.074771 89.727 84.3064
6.118792 89.772 83.7833
6.163131 89.816 83.2615
6.207792 89.861 82.7410
6.252776 89.905 82.2219
6.298086 89.948 81.7039
6.343725 89.991 81.1871
6.389694 90.034 80.6714
6.435996 90.077 80.1570
6.482634 90.119 79.6437
6.529610 90.160 79.1316
6.576926 90.202 78.6208
6.624585 90.243 78.1111
6.672590 90.283 77.6026
6.720942 90.323 77.0952
6.769645 90.363 76.5891
6.818700 90.402 76.0842
6.868111 90.441 75.5807
6.917881 90.479 75.0788
6.968010 90.517 74.5784
7.018504 90.555 74.0795
7.069362 90.592 73.5822
7.120590 90.629 73.0864
7.172189 90.665 72.5925
7.224161 90.701 72.1006
7.276511 90.736 71.6108
7.329239 90.771 71.1232
7.382350 90.806 70.6379
7.435845 90.840 70.1549
7.489729 90.874 69.6743
7.544002 90.908 69.1962
7.598669 90.941 68.7207
7.653732 90.974 68.2479
7.709194 91.006 67.7780
7.765058 91.038 67.3109
7.821327 91.071 66.8466
7.878004 91.102 66.3851
7.935091 91.134 65.9263
7.992592 91.165 65.4702
8.050510 91.197 65.0167
8.108847 91.228 64.5659
8.167607 91.259 64.1174
8.226793 91.291 63.6713
8.286408 91.322 63.2272
8.346454 91.353 62.7849
8.406936 91.384 62.3442
8.467856 91.415 61.9050
8.529218 91.446 61.4669
8.591024 91.477 61.0298
8.653278 91.508 60.5935
8.715983 91.539 60.1576
8.779143 91.570 59.7219
8.842760 91.601 59.2862
8.906839 91.632 58.8503
8.971381 91.662 58.4142
9.036392 91.692 57.9779
9.101873 91.722 57.5411
9.167829 91.752 57.1039
9.234263 91.781 56.6664
9.301178 91.810 56.2285
9.368578 91.838 55.7906
9.436467 91.866 55.3528
9.504847 91.893 54.9156
9.573723 91.920 54.4790
9.643099 91.946 54.0435
9.712976 91.971 53.6094
9.783361 91.996 53.1772
9.854255 92.020 52.7473
9.925663 92.043 52.3201
9.997588 92.066 51.8961
10.070035 92.088 51.4755
10.143007 92.110 51.0586
10.216507 92.131 50.6458
10.290540 92.151 50.2373
10.365109 92.172 49.8333
10.440219 92.192 49.4336
10.515873 92.212 49.0382
10.592076 92.232 48.6470
10.668830 92.252 48.2597
10.746141 92.272 47.8759
10.824012 92.292 47.4952
10.902447 92.313 47.1171
10.981451 92.333 46.7407
11.061027 92.354 46.3657
11.141180 92.375 45.9914
11.221913 92.397 45.6170
11.303232 92.418 45.2420
11.385140 92.439 44.8657
11.467641 92.461 44.4878
11.550741 92.482 44.1078
11.634442 92.503 43.7255
11.718750 92.524 43.3409
11.803669 92.544 42.9537
11.889203 92.564 42.5645
11.975357 92.583 42.1734
12.062136 92.601 41.7810
12.149543 92.618 41.3880
12.237583 92.635 40.9949
12.326262 92.650 40.6027
12.415583 92.664 40.2122
12.505552 92.678 39.8243
12.596172 92.690 39.4398
12.687449 92.702 39.0594
12.779387 92.712 38.6839
12.871992 92.723 38.3138
12.965268 92.732 37.9494
13.059220 92.742 37.5909
13.153852 92.751 37.2382
13.249170 92.760 36.8912
13.345179 92.770 36.5494
13.441884 92.779 36.2122
13.539289 92.789 35.8789
13.637401 92.800 35.5485
13.736223 92.810 35.2202
13.835761 92.822 34.8930
13.936021 92.834 34.5658
14.037007 92.846 34.2379
14.138725 92.859 33.9085
14.241180 92.871 33.5769
14.344377 92.884 33.2428
14.448323 92.897 32.9059
14.553021 92.910 32.5660
14.658478 92.922 32.2235
14.764700 92.934 31.8784
14.871691 92.946 31.5314
14.979457 92.957 31.1829
15.088005 92.967 30.8334
15.197339 92.977 30.4836
15.307465 92.987 30.1342
15.418389 92.995 29.7856
15.530117 93.003 29.4382
15.642655 93.011 29.0926
15.756008 93.018 28.7489
15.870182 93.025 28.4074
15.985184 93.031 28.0683
16.101019 93.037 27.7315
16.217694 93.043 27.3972
16.335214 93.049 27.0653
16.453586 93.054 26.7359
16.572815 93.059 26.4091
16.692909 93.064 26.0850
16.813872 93.069 25.7635
16.935713 93.074 25.4450
17.058436 93.079 25.1294
17.182048 93.083 24.8169
17.306556 93.088 24.5073
17.431967 93.092 24.2006
17.558286 93.097 23.8964
17.685521 93.102 23.5944
17.813677 93.107 23.2941
17.942762 93.113 22.9949
18.072783 93.118 22.6960
18.203746 93.124 22.3971
18.335658 93.130 22.0973
18.468526 93.136 21.7963
18.602356 93.142 21.4939
18.737156 93.148 21.1899
18.872934 93.153 20.8847
19.009695 93.158 20.5787
19.147447 93.162 20.2727
19.286197 93.165 19.9675
19.425953 93.168 19.6641
19.566721 93.169 19.3635
19.708510 93.171 19.0666
19.851326 93.172 18.7740
19.995177 93.172 18.4862
20.140070 93.172 18.2032
20.286013 93.173 17.9249
20.433014 93.173 17.6505
20.581080 93.174 17.3793
20.730219 93.175 17.1100
20.880439 93.177 16.8416
21.031747 93.179 16.5726
21.184152 93.181 16.3022
21.337661 93.184 16.0294
21.492282 93.186 15.7535
21.648024 93.188 15.4746
21.804895 93.189 15.1926
21.962902 93.190 14.9082
22.122054 93.190 14.6223
22.282360 93.189 14.3359
22.443827 93.187 14.0506
22.606464 93.185 13.7678
22.770280 93.181 13.4891
22.935283 93.176 13.2159
23.101481 93.171 12.9495
23.268884 93.166 12.6907
23.437500 93.161 12.4401
23.607338 93.156 12.1974
23.778406 93.152 11.9619
23.950714 93.149 11.7324
24.124271 93.148 11.5067
24.299086 93.148 11.2820
24.475167 93.150 11.0557
24.652524 93.153 10.8242
24.831166 93.158 10.5848
25.011103 93.164 10.3348
25.192344 93.170 10.0726
25.374898 93.176 9.7974
25.558775 93.182 9.5095
25.743984 93.186 9.2109
25.930536 93.188 8.9042
26.118439 93.189 8.5930
26.307704 93.187 8.2815
26.498341 93.183 7.9738
26.690359 93.177 7.6733
26.883768 93.170 7.3832
27.078579 93.163 7.1049
27.274801 93.155 6.8390
27.472446 93.147 6.5845
27.671522 93.141 6.3394
27.872042 93.135 6.1011
28.074014 93.131 5.8663
28.277450 93.128 5.6320
28.482360 93.126 5.3954
28.688755 93.125 5.1544
28.896645 93.125 4.9077
29.106042 93.124 4.6549
29.316957 93.122 4.3962
29.529400 93.120 4.1326
29.743382 93.118 3.8654
29.958915 93.113 3.5964
30.176009 93.108 3.3275
30.394677 93.101 3.0605
30.614929 93.094 2.7972
30.836778 93.085 2.5390
31.060234 93.075 2.2870
31.285309 93.065 2.0419
31.512015 93.055 1.8040
31.740364 93.045 1.5729
31.970368 93.034 1.3482
32.202039 93.025 1.1288
32.435388 93.016 0.9135
32.670428 93.007 0.7004
32.907171 93.000 0.4878
33.145630 92.993 0.2731
33.385817 92.987 0.0541
33.627745 92.982 -0.1714
33.871425 92.977 -0.4048
34.116871 92.972 -0.6467
34.364096 92.966 -0.8963
34.613113 92.958 -1.1514
34.863934 92.950 -1.4092
35.116572 92.940 -1.6666
35.371041 92.929 -1.9213
35.627354 92.917 -2.1720
35.885525 92.905 -2.4193
36.145566 92.893 -2.6647
36.407492 92.882 -2.9103
36.671316 92.870 -3.1573
36.937051 92.857 -3.4057
37.204712 92.843 -3.6534
37.474313 92.829 -3.8972
37.745867 92.813 -4.1339
38.019389 92.798 -4.3613
38.294893 92.783 -4.5796
38.572394 92.769 -4.7916
38.851905 92.757 -5.0017
39.133442 92.745 -5.2147
39.417019 92.735 -5.4338
39.702651 92.725 -5.6602
39.990353 92.714 -5.8922
40.280140 92.703 -6.1270
40.572026 92.690 -6.3613
40.866028 92.677 -6.5933
41.162160 92.664 -6.8226
41.460438 92.651 -7.0502
41.760877 92.638 -7.2772
42.063494 92.625 -7.5045
42.368303 92.612 -7.7314
42.675322 92.598 -7.9567
42.984565 92.584 -8.1792
43.296048 92.570 -8.3990
43.609789 92.556 -8.6177
43.925804 92.543 -8.8375
44.244108 92.530 -9.0610
44.564719 92.517 -9.2893
44.887654 92.503 -9.5218
45.212928 92.488 -9.7560
45.540560 92.472 -9.9890
45.870565 92.455 -10.2183
46.202962 92.437 -10.4427
46.537768 92.420 -10.6627
46.875000 92.402 -10.8795
47.214676 92.384 -11.0945
47.556813 92.366 -11.3081
47.901429 92.348 -11.5199
48.248542 92.329 -11.7290
48.598171 92.311 -11.9347
48.950334 92.292 -12.1371
49.305048 92.274 -12.3372
49.662333 92.256 -12.5365
50.022206 92.238 -12.7365
50.384688 92.220 -12.9379
50.749796 92.202 -13.1406
51.117550 92.183 -13.3439
51.487969 92.164 -13.5471
51.861072 92.144 -13.7491
52.236879 92.124 -13.9497
52.615409 92.104 -14.1489
52.996681 92.083 -14.3467
53.380717 92.062 -14.5435
53.767536 92.041 -14.7397
54.157158 92.019 -14.9353
54.549603 91.998 -15.1304
54.944892 91.976 -15.3254
55.343045 91.954 -15.5205
55.744084 91.932 -15.7163
56.148028 91.910 -15.9132
56.554900 91.888 -16.1115
56.964720 91.865 -16.3112
57.377510 91.842 -16.5121
57.793291 91.819 -16.7142
58.212085 91.796 -16.9170
58.633914 91.772 -17.1198
59.058799 91.748 -17.3213
59.486764 91.723 -17.5201
59.917829 91.698 -17.7153
60.352019 91.673 -17.9067
60.789354 91.648 -18.0946
61.229859 91.623 -18.2798
61.673556 91.598 -18.4629
62.120468 91.573 -18.6440
62.570618 91.547 -18.8230
63.024031 91.522 -18.9998
63.480729 91.496 -19.1747
63.940736 91.470 -19.3483
64.404077 91.444 -19.5211
64.870776 91.417 -19.6938
65.340856 91.390 -19.8667
65.814343 91.362 -20.0399
66.291261 91.334 -20.2129
66.771635 91.304 -20.3850
67.255489 91.275 -20.5554
67.742850 91.244 -20.7234
68.233743 91.214 -20.8890
68.728193 91.183 -21.0522
69.226226 91.152 -21.2137
69.727867 91.122 -21.3739
70.233144 91.091 -21.5334
70.742083 91.060 -21.6921
71.254709 91.028 -21.8495
71.771050 90.997 -22.0051
72.291132 90.965 -22.1587
72.814984 90.934 -22.3107
73.342631 90.902 -22.4619
73.874102 90.870 -22.6130
74.409424 90.838 -22.7647
74.948626 90.806 -22.9170
75.491734 90.773 -23.0696
76.038779 90.740 -23.2219
76.589787 90.707 -23.3734
77.144788 90.673 -23.5236
77.703811 90.640 -23.6723
78.266885 90.606 -23.8192
78.834039 90.571 -23.9636
79.405303 90.537 -24.1047
79.980706 90.503 -24.2423
80.560280 90.468 -24.3771
81.144053 90.434 -24.5096
81.732056 90.399 -24.6401
82.324320 90.363 -24.7684
82.920876 90.327 -24.8942
83.521755 90.291 -25.0173
84.126988 90.254 -25.1387
84.736607 90.218 -25.2587
85.350643 90.180 -25.3774
85.969129 90.143 -25.4943
86.592097 90.106 -25.6082
87.219579 90.068 -25.7183
87.851608 90.031 -25.8245
88.488217 89.994 -25.9270
89.129439 89.956 -26.0262
89.775308 89.919 -26.1223
90.425856 89.880 -26.2150
91.081119 89.841 -26.3049
91.741131 89.801 -26.3936
92.405925 89.761 -26.4830
93.075536 89.719 -26.5753
93.750000 89.677 -26.6714
94.429351 89.634 -26.7713
95.113625 89.591 -26.8737
95.802858 89.547 -26.9757
96.497085 89.504 -27.0751
97.196342 89.463 -27.1708
97.900667 89.422 -27.2632
98.610096 89.383 -27.3512
99.324665 89.343 -27.4320
